{
  "bib": {
    "title": "The MeV total neutron cross section program at R.P.I.",
    "authors": [
      {
        "name": "P.Stoler"
      },
      {
        "name": "J.Clement"
      },
      {
        "name": "C.Goulding"
      },
      {
        "name": "R.Fairchild"
      }
    ],
    "institutes": [
      {
        "x4_code": "(1USARPI)",
        "free_txt": []
      }
    ],
    "references": {
      "0": [
        {
          "x4_code": "(C,71KNOX,1,311,197103)",
          "free_txt": [],
          "publication_year": "1971"
        }
      ]
    },
    "facility": {
      "0": [
        {
          "x4_code": "(LINAC)",
          "free_txt": [
            " Electron linac."
          ]
        }
      ]
    },
    "history": [
      {
        "x4_code": "(19710407C)",
        "free_txt": []
      },
      {
        "x4_code": "(19800812A)",
        "free_txt": [
          " REFERENCE updated. Converted to REACTION",
          " FORMALISM."
        ]
      },
      {
        "x4_code": "(19801205A)",
        "free_txt": [
          " DETECTOR code removed."
        ]
      },
      {
        "x4_code": "(20000321A)",
        "free_txt": [
          " Converted to new date format, lower case.",
          "            Error data heading updated."
        ]
      }
    ]
  },
  "10124-001": {
    "extra_information": {
      "detector": {
        "0": [
          {
            "x4_code": null,
            "free_txt": [
              "Large proton-recoil detector."
            ]
          }
        ]
      },
      "err-analys": {
        "0": [
          {
            "x4_code": "(ERR-S)",
            "free_txt": [
              " Data error given is statistical error only"
            ]
          }
        ]
      },
      "facility": {
        "0": [
          {
            "x4_code": "(LINAC)",
            "free_txt": [
              " Electron linac."
            ]
          }
        ]
      },
      "method": {
        "0": [
          {
            "x4_code": "(TOF)",
            "free_txt": [
              " Time-of-flight. 250-m flight path."
            ]
          }
        ]
      },
      "status": {
        "0": [
          {
            "x4_code": "(APRVD)",
            "free_txt": [
              " Approved by author."
            ]
          }
        ]
      }
    }
  },
  "10124-002": {
    "reaction": {
      "0": {
        "x4_code": "(28-NI-60(N,TOT),,SIG)",
        "0": {
          "code": [
            "28-NI-60",
            [
              "N,TOT"
            ],
            ",,SIG"
          ],
          "type": null,
          "target": "28-NI-60",
          "process": "N,TOT",
          "sf49": ",,SIG",
          "sf4": null,
          "sf5": null,
          "sf6": "SIG",
          "sf7": null,
          "sf8": null,
          "sf9": null
        },
        "type": null,
        "free_text": ""
      }
    },
    "extra_information": {
      "sample": {
        "0": [
          {
            "x4_code": null,
            "free_txt": [
              "Sample thickness = .276 atoms/barn."
            ]
          }
        ]
      },
      "status": {
        "0": [
          {
            "x4_code": null,
            "free_txt": [
              "Data received on punched cards, Clement, April 1971."
            ]
          }
        ]
      }
    },
    "common": {
      "heads": [
        "EN-RSL"
      ],
      "units": [
        "NSEC/M"
      ],
      "data": [
        [
          0.064
        ]
      ]
    },
    "data": {
      "heads": [
        "EN",
        "DATA",
        "ERR-S"
      ],
      "units": [
        "MEV",
        "B",
        "B"
      ],
      "data": [
        [
          0.46004,
          0.46039,
          0.46073,
          0.46108,
          0.46143,
          0.46178,
          0.46213,
          0.46247,
          0.46282,
          0.46317,
          0.46352,
          0.46387,
          0.46422,
          0.46458,
          0.46493,
          0.46528,
          0.46563,
          0.46598,
          0.46634,
          0.46669,
          0.46705,
          0.4674,
          0.46775,
          0.46811,
          0.46847,
          0.46882,
          0.46918,
          0.46953,
          0.46989,
          0.47025,
          0.47061,
          0.47097,
          0.47132,
          0.47168,
          0.47204,
          0.4724,
          0.47276,
          0.47312,
          0.47349,
          0.47385,
          0.47421,
          0.47457,
          0.47494,
          0.4753,
          0.47566,
          0.47603,
          0.47639,
          0.47676,
          0.47712,
          0.47749,
          0.47785,
          0.47822,
          0.47859,
          0.47896,
          0.47932,
          0.47969,
          0.48006,
          0.48043,
          0.4808,
          0.48117,
          0.48154,
          0.48191,
          0.48228,
          0.48266,
          0.48303,
          0.4834,
          0.48377,
          0.48415,
          0.48452,
          0.4849,
          0.48527,
          0.48565,
          0.48602,
          0.4864,
          0.48677,
          0.48715,
          0.48753,
          0.48791,
          0.48829,
          0.48866,
          0.48904,
          0.48942,
          0.4898,
          0.49018,
          0.49057,
          0.49095,
          0.49133,
          0.49171,
          0.49209,
          0.49248,
          0.49286,
          0.49325,
          0.49363,
          0.49401,
          0.4944,
          0.49479,
          0.49517,
          0.49556,
          0.49595,
          0.49633,
          0.49672,
          0.49711,
          0.4975,
          0.49789,
          0.49828,
          0.49867,
          0.49906,
          0.49945,
          0.49985,
          0.50024,
          0.50063,
          0.50102,
          0.50142,
          0.50181,
          0.50221,
          0.5026,
          0.503,
          0.50339,
          0.50379,
          0.50419,
          0.50458,
          0.50498,
          0.50538,
          0.50578,
          0.50618,
          0.50658,
          0.50698,
          0.50738,
          0.50778,
          0.50818,
          0.50859,
          0.50899,
          0.50939,
          0.5098,
          0.5102,
          0.5106,
          0.51101,
          0.51142,
          0.51182,
          0.51223,
          0.51263,
          0.51304,
          0.51345,
          0.51386,
          0.51427,
          0.51468,
          0.51509,
          0.5155,
          0.51591,
          0.51632,
          0.51673,
          0.51714,
          0.51756,
          0.51797,
          0.51838,
          0.5188,
          0.51921,
          0.51963,
          0.52005,
          0.52046,
          0.52088,
          0.5213,
          0.52171,
          0.52213,
          0.52255,
          0.52297,
          0.52339,
          0.52381,
          0.52423,
          0.52465,
          0.52508,
          0.5255,
          0.52592,
          0.52634,
          0.52677,
          0.52719,
          0.52762,
          0.52804,
          0.52847,
          0.5289,
          0.52932,
          0.52975,
          0.53018,
          0.53061,
          0.53104,
          0.53147,
          0.5319,
          0.53233,
          0.53276,
          0.53319,
          0.53362,
          0.53406,
          0.53449,
          0.53492,
          0.53536,
          0.53579,
          0.53623,
          0.53666,
          0.5371,
          0.53754,
          0.53797,
          0.53841,
          0.53885,
          0.53929,
          0.53973,
          0.54017,
          0.54061,
          0.54105,
          0.5415,
          0.54194,
          0.54238,
          0.54282,
          0.54327,
          0.54371,
          0.54416,
          0.5446,
          0.54505,
          0.5455,
          0.54594,
          0.54639,
          0.54684,
          0.54729,
          0.54774,
          0.54819,
          0.54864,
          0.54909,
          0.54954,
          0.55,
          0.55045,
          0.5509,
          0.55136,
          0.55181,
          0.55227,
          0.55272,
          0.55318,
          0.55363,
          0.55409,
          0.55455,
          0.55501,
          0.55547,
          0.55593,
          0.55639,
          0.55685,
          0.55731,
          0.55777,
          0.55823,
          0.5587,
          0.55916,
          0.55963,
          0.56009,
          0.56056,
          0.56102,
          0.56149,
          0.56196,
          0.56242,
          0.56289,
          0.56336,
          0.56383,
          0.5643,
          0.56477,
          0.56524,
          0.56571,
          0.56619,
          0.56666,
          0.56713,
          0.56761,
          0.56808,
          0.56856,
          0.56903,
          0.56951,
          0.56999,
          0.57047,
          0.57094,
          0.57142,
          0.5719,
          0.57238,
          0.57286,
          0.57335,
          0.57383,
          0.57431,
          0.57479,
          0.57528,
          0.57576,
          0.57625,
          0.57673,
          0.57722,
          0.57771,
          0.57819,
          0.57868,
          0.57917,
          0.57966,
          0.58015,
          0.58064,
          0.58113,
          0.58162,
          0.58212,
          0.58261,
          0.5831,
          0.5836,
          0.58409,
          0.58459,
          0.58509,
          0.58558,
          0.58608,
          0.58658,
          0.58708,
          0.58758,
          0.58808,
          0.58858,
          0.58908,
          0.58958,
          0.59008,
          0.59059,
          0.59109,
          0.5916,
          0.5921,
          0.59261,
          0.59311,
          0.59362,
          0.59413,
          0.59464,
          0.59515,
          0.59566,
          0.59617,
          0.59668,
          0.59719,
          0.5977,
          0.59822,
          0.59873,
          0.59924,
          0.59976,
          0.60027,
          0.60079,
          0.60131,
          0.60183,
          0.60234,
          0.60286,
          0.60338,
          0.6039,
          0.60443,
          0.60495,
          0.60547,
          0.60599,
          0.60652,
          0.60704,
          0.60757,
          0.60809,
          0.60862,
          0.60915,
          0.60967,
          0.6102,
          0.61073,
          0.61126,
          0.61179,
          0.61232,
          0.61286,
          0.61339,
          0.61392,
          0.61446,
          0.61499,
          0.61553,
          0.61606,
          0.6166,
          0.61714,
          0.61768,
          0.61822,
          0.61876,
          0.6193,
          0.61984,
          0.62038,
          0.62092,
          0.62146,
          0.62201,
          0.62255,
          0.6231,
          0.62365,
          0.62419,
          0.62474,
          0.62529,
          0.62584,
          0.62639,
          0.62694,
          0.62749,
          0.62804,
          0.62859,
          0.62915,
          0.6297,
          0.63026,
          0.63081,
          0.63137,
          0.63193,
          0.63248,
          0.63304,
          0.6336,
          0.63416,
          0.63472,
          0.63528,
          0.63585,
          0.63641,
          0.63697,
          0.63754,
          0.6381,
          0.63867,
          0.63924,
          0.6398,
          0.64037,
          0.64094,
          0.64151,
          0.64208,
          0.64265,
          0.64322,
          0.6438,
          0.64437,
          0.64495,
          0.64552,
          0.6461,
          0.64667,
          0.64725,
          0.64783,
          0.64841,
          0.64899,
          0.64957,
          0.65015,
          0.65073,
          0.65132,
          0.6519,
          0.65248,
          0.65307,
          0.65365,
          0.65424,
          0.65483,
          0.65542,
          0.65601,
          0.6566,
          0.65719,
          0.65778,
          0.65837,
          0.65897,
          0.65956,
          0.66015,
          0.66075,
          0.66135,
          0.66194,
          0.66254,
          0.66314,
          0.66374,
          0.66434,
          0.66494,
          0.66554,
          0.66615,
          0.66675,
          0.66736,
          0.66796,
          0.66857,
          0.66917,
          0.66978,
          0.67039,
          0.671,
          0.67161,
          0.67222,
          0.67284,
          0.67345,
          0.67406,
          0.67468,
          0.67529,
          0.67591,
          0.67653,
          0.67714,
          0.67776,
          0.67838,
          0.679,
          0.67962,
          0.68024,
          0.68087,
          0.68149,
          0.68211,
          0.68274,
          0.68336,
          0.68399,
          0.68462,
          0.68525,
          0.68588,
          0.68651,
          0.68714,
          0.68777,
          0.6884,
          0.68904,
          0.68967,
          0.69031,
          0.69094,
          0.69158,
          0.69222,
          0.69286,
          0.6935,
          0.69414,
          0.69478,
          0.69542,
          0.69607,
          0.69671,
          0.69736,
          0.698,
          0.69865,
          0.6993,
          0.69995,
          0.70059,
          0.70125,
          0.7019,
          0.70255,
          0.7032,
          0.70386,
          0.70451,
          0.70517,
          0.70583,
          0.70648,
          0.70714,
          0.7078,
          0.70846,
          0.70912,
          0.70979,
          0.71045,
          0.71111,
          0.71178,
          0.71245,
          0.71311,
          0.71378,
          0.71445,
          0.71512,
          0.71579,
          0.71646,
          0.71714,
          0.71781,
          0.71848,
          0.71916,
          0.71984,
          0.72051,
          0.72119,
          0.72187,
          0.72255,
          0.72323,
          0.72392,
          0.7246,
          0.72528,
          0.72597,
          0.72666,
          0.72734,
          0.72803,
          0.72872,
          0.72941,
          0.7301,
          0.7308,
          0.73149,
          0.73218,
          0.73288,
          0.73357,
          0.73427,
          0.73497,
          0.73567,
          0.73637,
          0.73707,
          0.73777,
          0.73847,
          0.73918,
          0.73988,
          0.74059,
          0.7413,
          0.74201,
          0.74271,
          0.74342,
          0.74414,
          0.74485,
          0.74556,
          0.74628,
          0.74699,
          0.74771,
          0.74843,
          0.74915,
          0.74987,
          0.75059,
          0.75131,
          0.75204,
          0.75276,
          0.75348,
          0.75421,
          0.75494,
          0.75567,
          0.7564,
          0.75713,
          0.75786,
          0.75859,
          0.75933,
          0.76006,
          0.7608,
          0.76153,
          0.76227,
          0.76301,
          0.76375,
          0.76449,
          0.76524,
          0.76598,
          0.76672,
          0.76747,
          0.76822,
          0.76896,
          0.76971,
          0.77046,
          0.77121,
          0.77197,
          0.77272,
          0.77347,
          0.77423,
          0.77499,
          0.77574,
          0.7765,
          0.77726,
          0.77802,
          0.77879,
          0.77955,
          0.78031,
          0.78108,
          0.78185,
          0.78261,
          0.78338,
          0.78415,
          0.78492,
          0.7857,
          0.78647,
          0.78725,
          0.78802,
          0.7888,
          0.78958,
          0.79036,
          0.79114,
          0.79192,
          0.7927,
          0.79348,
          0.79427,
          0.79506,
          0.79584,
          0.79663,
          0.79742,
          0.79821,
          0.79901,
          0.7998,
          0.80059,
          0.80139,
          0.80219,
          0.80298,
          0.80378,
          0.80458,
          0.80538,
          0.80619,
          0.80699,
          0.8078,
          0.8086,
          0.80941,
          0.81022,
          0.81103,
          0.81184,
          0.81265,
          0.81347,
          0.81428,
          0.8151,
          0.81592,
          0.81673,
          0.81755,
          0.81838,
          0.8192,
          0.82002,
          0.82084,
          0.82167,
          0.82249,
          0.82332,
          0.82415,
          0.82498,
          0.82581,
          0.82664,
          0.82747,
          0.82831,
          0.82914,
          0.82998,
          0.83082,
          0.83166,
          0.8325,
          0.83334,
          0.83419,
          0.83503,
          0.83588,
          0.83672,
          0.83757,
          0.83842,
          0.83927,
          0.84013,
          0.84098,
          0.84183,
          0.84269,
          0.84355,
          0.84441,
          0.84527,
          0.84613,
          0.84699,
          0.84785,
          0.84872,
          0.84959,
          0.85046,
          0.85132,
          0.8522,
          0.85307,
          0.85394,
          0.85482,
          0.85569,
          0.85657,
          0.85745,
          0.85833,
          0.85921,
          0.86009,
          0.86098,
          0.86186,
          0.86275,
          0.86364,
          0.86453,
          0.86542,
          0.86631,
          0.86721,
          0.8681,
          0.869,
          0.8699,
          0.8708,
          0.8717,
          0.8726,
          0.8735,
          0.87441,
          0.87531,
          0.87622,
          0.87713,
          0.87804,
          0.87895,
          0.87987,
          0.88078,
          0.8817,
          0.88262,
          0.88354,
          0.88446,
          0.88538,
          0.8863,
          0.88723,
          0.88815,
          0.88908,
          0.89001,
          0.89094,
          0.89187,
          0.89281,
          0.89374,
          0.89468,
          0.89562,
          0.89656,
          0.8975,
          0.89844,
          0.89939,
          0.90033,
          0.90128,
          0.90223,
          0.90318,
          0.90413,
          0.90508,
          0.90604,
          0.90699,
          0.90795,
          0.90891,
          0.90987,
          0.91083,
          0.9118,
          0.91276,
          0.91373,
          0.9147,
          0.91567,
          0.91664,
          0.91761,
          0.91858,
          0.91956,
          0.92054,
          0.92152,
          0.9225,
          0.92348,
          0.92447,
          0.92545,
          0.92644,
          0.92743,
          0.92842,
          0.92941,
          0.9304,
          0.9314,
          0.93239,
          0.93339,
          0.93439,
          0.93539,
          0.9364,
          0.9374,
          0.93841,
          0.93941,
          0.94042,
          0.94143,
          0.94245,
          0.94346,
          0.94448,
          0.9455,
          0.94651,
          0.94754,
          0.94856,
          0.94958,
          0.95061,
          0.95164,
          0.95267,
          0.9537,
          0.95473,
          0.95576,
          0.9568,
          0.95784,
          0.95888,
          0.95992,
          0.96096,
          0.962,
          0.96305,
          0.9641,
          0.96515,
          0.9662,
          0.96725,
          0.96831,
          0.96936,
          0.97042,
          0.97148,
          0.97254,
          0.97361,
          0.97467,
          0.97574,
          0.97681,
          0.97788,
          0.97895,
          0.98002,
          0.9811,
          0.98218,
          0.98326,
          0.98434,
          0.98542,
          0.9865,
          0.98759,
          0.98868,
          0.98977,
          0.99086,
          0.99195,
          0.99305,
          0.99415,
          0.99525,
          0.99635,
          0.99745,
          0.99855,
          0.99966,
          1.0007,
          1.0018,
          1.0029,
          1.0041,
          1.0052,
          1.0063,
          1.0074,
          1.0085,
          1.0097,
          1.0108,
          1.0119,
          1.013,
          1.0142,
          1.0153,
          1.0164,
          1.0176,
          1.0187,
          1.0198,
          1.021,
          1.0221,
          1.0233,
          1.0244,
          1.0256,
          1.0267,
          1.0279,
          1.029,
          1.0302,
          1.0314,
          1.0325,
          1.0337,
          1.0348,
          1.036,
          1.0372,
          1.0384,
          1.0395,
          1.0407,
          1.0419,
          1.0431,
          1.0442,
          1.0454,
          1.0466,
          1.0478,
          1.049,
          1.0502,
          1.0514,
          1.0526,
          1.0538,
          1.055,
          1.0562,
          1.0574,
          1.0586,
          1.0598,
          1.061,
          1.0622,
          1.0634,
          1.0646,
          1.0659,
          1.0671,
          1.0683,
          1.0695,
          1.0707,
          1.072,
          1.0732,
          1.0744,
          1.0757,
          1.0769,
          1.0782,
          1.0794,
          1.0806,
          1.0819,
          1.0831,
          1.0844,
          1.0856,
          1.0869,
          1.0881,
          1.0894,
          1.0907,
          1.0919,
          1.0932,
          1.0945,
          1.0957,
          1.097,
          1.0983,
          1.0996,
          1.1008,
          1.1021,
          1.1034,
          1.1047,
          1.106,
          1.1073,
          1.1085,
          1.1098,
          1.1111,
          1.1124,
          1.1137,
          1.115,
          1.1163,
          1.1177,
          1.119,
          1.1203,
          1.1216,
          1.1229,
          1.1242,
          1.1256,
          1.1269,
          1.1282,
          1.1295,
          1.1309,
          1.1322,
          1.1335,
          1.1349,
          1.1362,
          1.1376,
          1.1389,
          1.1403,
          1.1416,
          1.143,
          1.1443,
          1.1457,
          1.147,
          1.1484,
          1.1498,
          1.1511,
          1.1525,
          1.1539,
          1.1552,
          1.1566,
          1.158,
          1.1594,
          1.1608,
          1.1621,
          1.1635,
          1.1649,
          1.1663,
          1.1677,
          1.1691,
          1.1705,
          1.1719,
          1.1733,
          1.1747,
          1.1762,
          1.1776,
          1.179,
          1.1804,
          1.1818,
          1.1833,
          1.1847,
          1.1861,
          1.1875,
          1.189,
          1.1904,
          1.1919,
          1.1933,
          1.1947,
          1.1962,
          1.1976,
          1.1991,
          1.2006,
          1.202,
          1.2035,
          1.2049,
          1.2064,
          1.2079,
          1.2094,
          1.2108,
          1.2123,
          1.2138,
          1.2153,
          1.2168,
          1.2182,
          1.2197,
          1.2212,
          1.2227,
          1.2242,
          1.2257,
          1.2272,
          1.2287,
          1.2303,
          1.2318,
          1.2333,
          1.2348,
          1.2363,
          1.2378,
          1.2394,
          1.2409,
          1.2424,
          1.244,
          1.2455,
          1.2471,
          1.2486,
          1.2501,
          1.2517,
          1.2532,
          1.2548,
          1.2564,
          1.2579,
          1.2595,
          1.2611,
          1.2626,
          1.2642,
          1.2658,
          1.2674,
          1.2689,
          1.2705,
          1.2721,
          1.2737,
          1.2753,
          1.2769,
          1.2785,
          1.2801,
          1.2817,
          1.2833,
          1.2849,
          1.2865,
          1.2881,
          1.2898,
          1.2914,
          1.293,
          1.2946,
          1.2963,
          1.2979,
          1.2995,
          1.3012,
          1.3028,
          1.3045,
          1.3061,
          1.3078,
          1.3094,
          1.3111,
          1.3127,
          1.3144,
          1.3161,
          1.3178,
          1.3194,
          1.3211,
          1.3228,
          1.3245,
          1.3262,
          1.3278,
          1.3295,
          1.3312,
          1.3329,
          1.3346,
          1.3363,
          1.3381,
          1.3398,
          1.3415,
          1.3432,
          1.3449,
          1.3467,
          1.3484,
          1.3501,
          1.3519,
          1.3536,
          1.3553,
          1.3571,
          1.3588,
          1.3606,
          1.3624,
          1.3641,
          1.3659,
          1.3676,
          1.3694,
          1.3712,
          1.373,
          1.3747,
          1.3765,
          1.3783,
          1.3801,
          1.3819,
          1.3837,
          1.3855,
          1.3873,
          1.3891,
          1.3909,
          1.3927,
          1.3946,
          1.3964,
          1.3982,
          1.4,
          1.4019,
          1.4037,
          1.4056,
          1.4074,
          1.4093,
          1.4111,
          1.413,
          1.4148,
          1.4167,
          1.4186,
          1.4204,
          1.4223,
          1.4242,
          1.4261,
          1.4279,
          1.4298,
          1.4317,
          1.4336,
          1.4355,
          1.4374,
          1.4393,
          1.4412,
          1.4432,
          1.4451,
          1.447,
          1.4489,
          1.4509,
          1.4528,
          1.4547,
          1.4567,
          1.4586,
          1.4606,
          1.4625,
          1.4645,
          1.4664,
          1.4684,
          1.4704,
          1.4723,
          1.4743,
          1.4763,
          1.4783,
          1.4803,
          1.4823,
          1.4843,
          1.4863,
          1.4883,
          1.4903,
          1.4923,
          1.4943,
          1.4963,
          1.4983,
          1.5004,
          1.5024,
          1.5044,
          1.5065,
          1.5085,
          1.5106,
          1.5126,
          1.5147,
          1.5168,
          1.5188,
          1.5209,
          1.523,
          1.525,
          1.5271,
          1.5292,
          1.5313,
          1.5334,
          1.5355,
          1.5376,
          1.5397,
          1.5418,
          1.5439,
          1.5461,
          1.5482,
          1.5503,
          1.5525,
          1.5546,
          1.5567,
          1.5589,
          1.561,
          1.5632,
          1.5654,
          1.5675,
          1.5697,
          1.5719,
          1.5741,
          1.5762,
          1.5784,
          1.5806,
          1.5828,
          1.585,
          1.5872,
          1.5894,
          1.5917,
          1.5939,
          1.5961,
          1.5983,
          1.6006,
          1.6028,
          1.6051,
          1.6073,
          1.6096,
          1.6118,
          1.6141,
          1.6164,
          1.6186,
          1.6209,
          1.6232,
          1.6255,
          1.6278,
          1.6301,
          1.6324,
          1.6347,
          1.637,
          1.6393,
          1.6416,
          1.644,
          1.6463,
          1.6486,
          1.651,
          1.6533,
          1.6557,
          1.658,
          1.6604,
          1.6628,
          1.6651,
          1.6675,
          1.6699,
          1.6723,
          1.6747,
          1.6771,
          1.6795,
          1.6819,
          1.6843,
          1.6867,
          1.6892,
          1.6916,
          1.6941,
          1.6965,
          1.6989,
          1.7014,
          1.7039,
          1.7063,
          1.7088,
          1.7113,
          1.7138,
          1.7162,
          1.7187,
          1.7212,
          1.7237,
          1.7262,
          1.7288,
          1.7313,
          1.7338,
          1.7363,
          1.7389,
          1.7414,
          1.744,
          1.7465,
          1.7491,
          1.7516,
          1.7542,
          1.7568,
          1.7594,
          1.762,
          1.7645,
          1.7671,
          1.7697,
          1.7724,
          1.775,
          1.7776,
          1.7802,
          1.7829,
          1.7855,
          1.7881,
          1.7908,
          1.7935,
          1.7961,
          1.7988,
          1.8015,
          1.8041,
          1.8068,
          1.8095,
          1.8122,
          1.8149,
          1.8176,
          1.8204,
          1.8231,
          1.8258,
          1.8285,
          1.8313,
          1.834,
          1.8368,
          1.8395,
          1.8423,
          1.8451,
          1.8479,
          1.8506,
          1.8534,
          1.8562,
          1.859,
          1.8618,
          1.8647,
          1.8675,
          1.8703,
          1.8732,
          1.876,
          1.8788,
          1.8817,
          1.8846,
          1.8874,
          1.8903,
          1.8932,
          1.8961,
          1.899,
          1.9019,
          1.9048,
          1.9077,
          1.9106,
          1.9135,
          1.9165,
          1.9194,
          1.9224,
          1.9253,
          1.9283,
          1.9313,
          1.9342,
          1.9372,
          1.9402,
          1.9432,
          1.9462,
          1.9492,
          1.9522,
          1.9553,
          1.9583,
          1.9613,
          1.9644,
          1.9674,
          1.9705,
          1.9736,
          1.9766,
          1.9797,
          1.9828,
          1.9859,
          1.989,
          1.9921,
          1.9952,
          1.9984,
          2.0015,
          2.0046,
          2.0078,
          2.0109,
          2.0141,
          2.0173,
          2.0204,
          2.0236,
          2.0268,
          2.03,
          2.0332,
          2.0364,
          2.0397,
          2.0429,
          2.0461,
          2.0494,
          2.0526,
          2.0559,
          2.0592,
          2.0624,
          2.0657,
          2.069,
          2.0723,
          2.0756,
          2.0789,
          2.0823,
          2.0856,
          2.0889,
          2.0923,
          2.0957,
          2.099,
          2.1024,
          2.1058,
          2.1092,
          2.1126,
          2.116,
          2.1194,
          2.1228,
          2.1262,
          2.1297,
          2.1331,
          2.1366,
          2.14,
          2.1435,
          2.147,
          2.1505,
          2.154,
          2.1575,
          2.161,
          2.1645,
          2.168,
          2.1716,
          2.1751,
          2.1787,
          2.1823,
          2.1858,
          2.1894,
          2.193,
          2.1966,
          2.2002,
          2.2039,
          2.2075,
          2.2111,
          2.2148,
          2.2184,
          2.2221,
          2.2258,
          2.2294,
          2.2331,
          2.2368,
          2.2405,
          2.2443,
          2.248,
          2.2517,
          2.2555,
          2.2592,
          2.263,
          2.2668,
          2.2706,
          2.2743,
          2.2781,
          2.2819,
          2.2858,
          2.2896,
          2.2934,
          2.2973,
          2.3011,
          2.305,
          2.3089,
          2.3127,
          2.3166,
          2.3205,
          2.3245,
          2.3284,
          2.3323,
          2.3363,
          2.3402,
          2.3442,
          2.3481,
          2.3521,
          2.3561,
          2.3601,
          2.3641,
          2.3682,
          2.3722,
          2.3762,
          2.3803,
          2.3844,
          2.3884,
          2.3925,
          2.3966,
          2.4007,
          2.4049,
          2.409,
          2.4131,
          2.4173,
          2.4214,
          2.4256,
          2.4298,
          2.434,
          2.4382,
          2.4424,
          2.4466,
          2.4509,
          2.4551,
          2.4594,
          2.4636,
          2.4679,
          2.4722,
          2.4765,
          2.4808,
          2.4852,
          2.4895,
          2.4939,
          2.4982,
          2.5026,
          2.507,
          2.5114,
          2.5158,
          2.5202,
          2.5246,
          2.5291,
          2.5335,
          2.538,
          2.5425,
          2.547,
          2.5515,
          2.556,
          2.5605,
          2.565,
          2.5696,
          2.5741,
          2.5787,
          2.5833,
          2.5879,
          2.5925,
          2.5971,
          2.6018,
          2.6064,
          2.6111,
          2.6157,
          2.6204,
          2.6251,
          2.6298,
          2.6346,
          2.6393,
          2.644,
          2.6488,
          2.6536,
          2.6584,
          2.6632,
          2.668,
          2.6728,
          2.6776,
          2.6825,
          2.6874,
          2.6923,
          2.6972,
          2.7021,
          2.707,
          2.7119,
          2.7169,
          2.7218,
          2.7268,
          2.7318,
          2.7368,
          2.7418,
          2.7469,
          2.7519,
          2.757,
          2.7621,
          2.7671,
          2.7722,
          2.7774,
          2.7825,
          2.7876,
          2.7928,
          2.798,
          2.8032,
          2.8084,
          2.8136,
          2.8188,
          2.8241,
          2.8293,
          2.8346,
          2.8399,
          2.8452,
          2.8505,
          2.8559,
          2.8612,
          2.8666,
          2.872,
          2.8774,
          2.8828,
          2.8882,
          2.8936,
          2.8991,
          2.9046,
          2.9101,
          2.9156,
          2.9211,
          2.9266,
          2.9322,
          2.9378,
          2.9433,
          2.9489,
          2.9546,
          2.9602,
          2.9658,
          2.9715,
          2.9772,
          2.9829,
          2.9886,
          2.9943,
          3.0001,
          3.0058,
          3.0116,
          3.0174,
          3.0232,
          3.029,
          3.0349,
          3.0408,
          3.0466,
          3.0525,
          3.0584,
          3.0644,
          3.0703,
          3.0763,
          3.0823,
          3.0883,
          3.0943,
          3.1003,
          3.1064,
          3.1125,
          3.1186,
          3.1247,
          3.1308,
          3.1369,
          3.1431,
          3.1493,
          3.1555,
          3.1617,
          3.1679,
          3.1742,
          3.1805,
          3.1867,
          3.1931,
          3.1994,
          3.2057,
          3.2121,
          3.2185,
          3.2249,
          3.2313,
          3.2378,
          3.2442,
          3.2507,
          3.2572,
          3.2638,
          3.2703,
          3.2769,
          3.2835,
          3.2901,
          3.2967,
          3.3034,
          3.3101,
          3.3168,
          3.3235,
          3.3302,
          3.337,
          3.3437,
          3.3505,
          3.3574,
          3.3642,
          3.371,
          3.3779,
          3.3848,
          3.3918,
          3.3987,
          3.4057,
          3.4127,
          3.4197,
          3.4267,
          3.4337,
          3.4408,
          3.4479,
          3.455,
          3.4622,
          3.4693,
          3.4765,
          3.4837,
          3.491,
          3.4982,
          3.5055,
          3.5128,
          3.5201,
          3.5274,
          3.5348,
          3.5422,
          3.5496,
          3.557,
          3.5645,
          3.572,
          3.5795,
          3.587,
          3.5946,
          3.6022,
          3.6098,
          3.6174,
          3.625,
          3.6327,
          3.6404,
          3.6481,
          3.6559,
          3.6637,
          3.6714,
          3.6793,
          3.6871,
          3.695,
          3.7029,
          3.7108,
          3.7188,
          3.7267,
          3.7347,
          3.7428,
          3.7508,
          3.7589,
          3.767,
          3.7751,
          3.7833,
          3.7915,
          3.7997,
          3.8079,
          3.8162,
          3.8245,
          3.8328,
          3.8411,
          3.8495,
          3.8579,
          3.8663,
          3.8748,
          3.8833,
          3.8918,
          3.9003,
          3.9089,
          3.9175,
          3.9261,
          3.9348,
          3.9435,
          3.9522,
          3.9609,
          3.9697,
          3.9785,
          3.9873,
          3.9962,
          4.005,
          4.014,
          4.0229,
          4.0319,
          4.0409,
          4.0499,
          4.059,
          4.0681,
          4.0772,
          4.0864,
          4.0956,
          4.1048,
          4.114,
          4.1233,
          4.1326,
          4.142,
          4.1514,
          4.1608,
          4.1702,
          4.1797,
          4.1892,
          4.1987,
          4.2083,
          4.2179,
          4.2276,
          4.2372,
          4.2469,
          4.2567,
          4.2664,
          4.2762,
          4.2861,
          4.296,
          4.3059,
          4.3158,
          4.3258,
          4.3358,
          4.3458,
          4.3559,
          4.366,
          4.3762,
          4.3864,
          4.3966,
          4.4069,
          4.4172,
          4.4275,
          4.4379,
          4.4483,
          4.4587,
          4.4692,
          4.4797,
          4.4902,
          4.5008,
          4.5115,
          4.5221,
          4.5328,
          4.5436,
          4.5543,
          4.5652,
          4.576,
          4.5869,
          4.5978,
          4.6088,
          4.6198,
          4.6309,
          4.642,
          4.6531,
          4.6643,
          4.6755,
          4.6868,
          4.698,
          4.7094,
          4.7208,
          4.7322,
          4.7436,
          4.7551,
          4.7667,
          4.7783,
          4.7899,
          4.8016,
          4.8133,
          4.825,
          4.8368,
          4.8487,
          4.8606,
          4.8725,
          4.8845,
          4.8965,
          4.9085,
          4.9207,
          4.9328,
          4.945,
          4.9573,
          4.9695,
          4.9819,
          4.9943,
          5.0067,
          5.0192,
          5.0317,
          5.0442,
          5.0569,
          5.0695,
          5.0822,
          5.0949,
          5.1077,
          5.1206,
          5.1335,
          5.1464,
          5.1594,
          5.1724,
          5.1855,
          5.1987,
          5.2119,
          5.2251,
          5.2384,
          5.2517,
          5.2651,
          5.2786,
          5.292,
          5.3056,
          5.3192,
          5.3328,
          5.3465,
          5.3603,
          5.3741,
          5.388,
          5.4019,
          5.4159,
          5.4299,
          5.444,
          5.4581,
          5.4723,
          5.4865,
          5.5008,
          5.5152,
          5.5296,
          5.5441,
          5.5586,
          5.5732,
          5.5878,
          5.6025,
          5.6173,
          5.6321,
          5.647,
          5.6619,
          5.6769,
          5.692,
          5.7071,
          5.7223,
          5.7375,
          5.7528,
          5.7682,
          5.7836,
          5.7991,
          5.8146,
          5.8302,
          5.8459,
          5.8616,
          5.8774,
          5.8933,
          5.9092,
          5.9252,
          5.9413,
          5.9574,
          5.9736,
          5.9899,
          6.0062,
          6.0226,
          6.039,
          6.0556,
          6.0721,
          6.0888,
          6.1055,
          6.1223,
          6.1392,
          6.1561,
          6.1732,
          6.1902,
          6.2074,
          6.2246,
          6.2419,
          6.2593,
          6.2767,
          6.2942,
          6.3118,
          6.3295,
          6.3472,
          6.365,
          6.3829,
          6.4009,
          6.4189,
          6.437,
          6.4552,
          6.4735,
          6.4918,
          6.5103,
          6.5288,
          6.5474,
          6.566,
          6.5848,
          6.6036,
          6.6225,
          6.6416,
          6.6606,
          6.6798,
          6.6991,
          6.7184,
          6.7378,
          6.7573,
          6.7769,
          6.7966,
          6.8164,
          6.8362,
          6.8562,
          6.8762,
          6.8963,
          6.9165,
          6.9368,
          6.9572,
          6.9776,
          6.9982,
          7.0189,
          7.0396,
          7.0604,
          7.0814,
          7.1024,
          7.1235,
          7.1447,
          7.166,
          7.1875,
          7.209,
          7.2306,
          7.2522,
          7.274,
          7.2959,
          7.3179,
          7.34,
          7.3622,
          7.3845,
          7.4069,
          7.4294,
          7.452,
          7.4747,
          7.4975,
          7.5204,
          7.5434,
          7.5666,
          7.5898,
          7.6131,
          7.6366,
          7.6602,
          7.6838,
          7.7076,
          7.7315,
          7.7555,
          7.7796,
          7.8038,
          7.8282,
          7.8526,
          7.8772,
          7.9019,
          7.9267,
          7.9516,
          7.9766,
          8.0018,
          8.0271,
          8.0525,
          8.078,
          8.1036,
          8.1294,
          8.1553,
          8.1813,
          8.2074,
          8.2337,
          8.2601,
          8.2866,
          8.3132,
          8.34,
          8.3669,
          8.394,
          8.4211,
          8.4484,
          8.4759,
          8.5034,
          8.5311,
          8.559,
          8.5869,
          8.6151,
          8.6433,
          8.6717,
          8.7002,
          8.7289,
          8.7577,
          8.7867,
          8.8158,
          8.8451,
          8.8745,
          8.904,
          8.9337,
          8.9636,
          8.9937,
          9.0239,
          9.0543,
          9.0848,
          9.1154,
          9.1463,
          9.1773,
          9.2084,
          9.2397,
          9.2712,
          9.3028,
          9.3346,
          9.3665,
          9.3987,
          9.4309,
          9.4634,
          9.496,
          9.5288,
          9.5619,
          9.5949,
          9.6283,
          9.6618,
          9.6954,
          9.7292,
          9.7633,
          9.7975,
          9.8318,
          9.8663,
          9.9011,
          9.936,
          9.9711,
          10.006,
          10.041,
          10.077,
          10.113,
          10.149,
          10.185,
          10.222,
          10.258,
          10.295,
          10.332,
          10.37,
          10.407,
          10.445,
          10.482,
          10.521,
          10.559,
          10.597,
          10.636,
          10.675,
          10.714,
          10.753,
          10.793,
          10.833,
          10.873,
          10.913,
          10.953,
          10.994,
          11.035,
          11.076,
          11.118,
          11.159,
          11.201,
          11.243,
          11.285,
          11.328,
          11.371,
          11.414,
          11.457,
          11.501,
          11.544,
          11.588,
          11.633,
          11.677,
          11.722,
          11.767,
          11.812,
          11.858,
          11.904,
          11.95,
          11.996,
          12.043,
          12.09,
          12.137,
          12.185,
          12.233,
          12.281,
          12.329,
          12.378,
          12.427,
          12.476,
          12.525,
          12.575,
          12.625,
          12.676,
          12.726,
          12.777,
          12.829,
          12.88,
          12.932,
          12.985,
          13.037,
          13.09,
          13.143,
          13.197,
          13.251,
          13.305,
          13.36,
          13.415,
          13.47,
          13.525,
          13.581,
          13.638,
          13.694,
          13.751,
          13.809,
          13.866,
          13.925,
          13.983,
          14.042,
          14.101,
          14.161,
          14.221,
          14.281,
          14.342,
          14.403,
          14.464,
          14.526,
          14.589,
          14.651,
          14.715,
          14.778,
          14.842,
          14.906,
          14.971,
          15.037,
          15.102,
          15.168,
          15.235,
          15.302,
          15.369,
          15.437,
          15.505,
          15.574,
          15.644,
          15.713,
          15.783,
          15.854,
          15.925,
          15.997,
          16.069,
          16.142,
          16.215,
          16.288,
          16.362,
          16.437,
          16.512,
          16.588,
          16.664,
          16.741,
          16.818,
          16.896,
          16.974,
          17.053,
          17.133,
          17.213,
          17.293,
          17.375,
          17.456,
          17.538,
          17.621,
          17.705,
          17.789,
          17.874,
          17.959,
          18.045,
          18.132,
          18.219,
          18.307,
          18.395,
          18.484,
          18.574,
          18.664,
          18.756,
          18.847,
          18.94,
          19.033,
          19.127,
          19.221,
          19.317,
          19.413,
          19.509,
          19.607,
          19.705,
          19.804,
          19.904,
          20.004,
          20.106,
          20.208,
          20.311,
          20.415,
          20.52,
          20.625,
          20.732,
          20.839,
          20.947,
          21.056,
          21.166,
          21.276,
          21.388,
          21.5,
          21.613,
          21.728,
          21.843,
          21.959,
          22.076,
          22.194,
          22.312,
          22.432,
          22.553,
          22.675,
          22.798,
          22.922,
          23.046,
          23.172,
          23.299,
          23.427,
          23.556,
          23.687,
          23.818,
          23.95,
          24.084,
          24.218,
          24.354,
          24.491,
          24.629,
          24.768,
          24.909,
          25.05,
          25.193,
          25.337,
          25.483,
          25.63,
          25.778,
          25.927,
          26.077,
          26.229,
          26.383,
          26.537,
          26.693,
          26.851,
          27.01,
          27.17,
          27.332,
          27.495,
          27.659,
          27.826,
          27.993
        ],
        [
          3.4014,
          2.7973,
          2.9665,
          2.3935,
          2.2738,
          2.1813,
          1.6977,
          2.1077,
          1.7514,
          1.8563,
          2.3086,
          2.5073,
          2.9658,
          3.6417,
          3.9013,
          3.9776,
          4.461,
          4.2866,
          4.1537,
          3.8972,
          3.9664,
          3.6561,
          4.4505,
          3.7753,
          3.6689,
          3.4004,
          3.4877,
          2.852,
          3.1643,
          3.2276,
          2.7503,
          2.6676,
          2.8438,
          3.512,
          2.3167,
          2.9059,
          2.9029,
          2.8987,
          2.6461,
          2.3564,
          2.0143,
          2.2398,
          2.5615,
          3.2165,
          2.8958,
          3.8649,
          3.6116,
          4.1295,
          2.3249,
          2.9214,
          2.2325,
          1.7716,
          1.7598,
          1.9929,
          1.2598,
          1.6394,
          1.804,
          1.934,
          2.0763,
          1.9023,
          0.76126,
          1.5598,
          1.2512,
          1.1832,
          0.97913,
          0.95522,
          0.85622,
          1.0028,
          1.1669,
          1.5735,
          1.6055,
          1.7424,
          1.9135,
          2.8283,
          3.3581,
          4.0064,
          4.6445,
          5.5507,
          5.8926,
          5.1651,
          4.3222,
          4.227,
          4.082,
          3.5128,
          3.6217,
          3.4549,
          3.8181,
          3.8946,
          3.0742,
          3.0049,
          2.5596,
          2.8015,
          2.2972,
          2.1344,
          1.5742,
          1.7115,
          1.7418,
          1.5632,
          1.5928,
          0.98941,
          1.1542,
          0.80612,
          1.0562,
          1.6539,
          1.8643,
          2.5045,
          3.949,
          4.0332,
          4.2579,
          3.8429,
          3.8449,
          3.9976,
          4.3845,
          4.4859,
          4.4168,
          5.2872,
          4.6573,
          5.3927,
          5.1613,
          5.3441,
          4.7568,
          4.2908,
          4.064,
          4.531,
          3.9867,
          4.174,
          4.5885,
          3.6368,
          4.1781,
          3.8315,
          3.937,
          3.4387,
          3.4259,
          3.5957,
          4.0835,
          3.4885,
          3.6788,
          2.6421,
          3.3255,
          4.1396,
          4.5145,
          5.3777,
          5.4228,
          4.6131,
          3.4861,
          2.6791,
          2.0712,
          2.5505,
          3.2549,
          4.8953,
          4.8759,
          3.4959,
          2.5873,
          2.2024,
          2.0405,
          1.4035,
          1.5137,
          1.236,
          1.2198,
          0.99668,
          1.6999,
          1.4762,
          2.5593,
          2.5437,
          3.1293,
          2.8488,
          3.791,
          4.1666,
          4.5764,
          4.1909,
          4.397,
          3.3807,
          2.7194,
          2.1277,
          2.2355,
          2.2718,
          2.6004,
          4.2385,
          5.0223,
          6.2841,
          4.8203,
          4.5207,
          5.3503,
          4.8766,
          4.5556,
          4.855,
          4.9105,
          4.4077,
          4.2599,
          4.8154,
          4.6901,
          4.4285,
          4.5931,
          4.6923,
          4.8576,
          4.805,
          5.1268,
          4.5522,
          4.62,
          4.3084,
          5.1355,
          5.3468,
          5.0064,
          4.8498,
          4.2274,
          5.1599,
          4.2871,
          4.0985,
          4.7279,
          4.3145,
          3.9278,
          4.2394,
          4.1326,
          3.8525,
          4.574,
          3.744,
          3.8269,
          4.0735,
          4.0907,
          3.3987,
          3.9612,
          3.908,
          3.6769,
          4.0236,
          4.1284,
          3.7953,
          3.9208,
          3.4749,
          3.5745,
          3.4073,
          3.8344,
          3.6671,
          3.3189,
          3.3958,
          3.5929,
          4.765,
          4.9933,
          5.6686,
          4.1376,
          3.8449,
          3.441,
          3.2126,
          3.3418,
          2.9298,
          2.8044,
          2.901,
          2.338,
          2.8936,
          3.4477,
          3.7851,
          3.919,
          4.4035,
          3.7812,
          3.0187,
          3.2573,
          3.5304,
          2.9997,
          3.1156,
          3.4028,
          3.0809,
          2.9272,
          2.9974,
          2.8934,
          2.9297,
          3.2747,
          3.9903,
          4.1351,
          3.5256,
          3.0569,
          2.6109,
          2.6711,
          2.7796,
          3.0734,
          2.4109,
          2.448,
          2.8298,
          2.8787,
          3.0209,
          2.8728,
          2.4861,
          2.6403,
          2.4137,
          2.8674,
          2.8334,
          2.5305,
          2.2858,
          2.7019,
          2.8809,
          3.0193,
          2.8344,
          2.3385,
          2.145,
          2.0303,
          1.5849,
          1.794,
          2.3898,
          3.3393,
          3.0193,
          2.3447,
          1.9736,
          1.8978,
          2.0365,
          1.7208,
          1.7654,
          1.6958,
          1.7893,
          1.442,
          1.423,
          1.5678,
          1.6253,
          1.3137,
          1.9151,
          2.244,
          1.9002,
          2.043,
          1.8099,
          1.0783,
          1.0308,
          0.92032,
          0.90214,
          0.84366,
          0.72905,
          1.136,
          1.8825,
          3.3431,
          3.8875,
          2.9547,
          2.4852,
          1.8763,
          1.4257,
          1.6119,
          0.81453,
          0.93768,
          1.0291,
          0.66477,
          0.63416,
          0.58663,
          0.92733,
          0.91979,
          0.99306,
          1.1576,
          1.5456,
          2.1657,
          3.3464,
          5.7883,
          6.8274,
          5.7687,
          4.7396,
          4.2179,
          4.6322,
          4.5733,
          4.6411,
          4.5311,
          4.888,
          4.4574,
          3.5501,
          3.2845,
          3.0924,
          2.7302,
          2.1143,
          1.8545,
          1.9366,
          2.7669,
          3.3224,
          3.3417,
          3.2785,
          2.8343,
          3.0732,
          4.4849,
          5.7672,
          6.2349,
          5.7998,
          4.2424,
          3.1408,
          2.4212,
          1.8233,
          2.3548,
          1.6781,
          1.3167,
          0.79332,
          1.214,
          1.2692,
          1.636,
          1.7466,
          2.2024,
          2.3776,
          2.4918,
          2.8963,
          3.55,
          3.9502,
          4.4418,
          4.8432,
          4.8313,
          4.7555,
          5.2258,
          6.0842,
          5.4316,
          4.3292,
          2.7957,
          1.7944,
          1.9485,
          2.9728,
          3.8596,
          4.8401,
          5.624,
          6.3585,
          5.1924,
          4.5578,
          4.8254,
          4.5671,
          3.6676,
          3.4247,
          3.0965,
          3.1089,
          3.359,
          3.1738,
          2.9306,
          1.9544,
          2.0243,
          1.4504,
          1.5889,
          1.2187,
          1.6626,
          2.9582,
          4.4113,
          4.5304,
          2.9979,
          2.2219,
          1.7644,
          1.6561,
          1.5496,
          2.5135,
          2.8085,
          1.8677,
          1.0647,
          1.2221,
          1.2023,
          1.8203,
          3.2874,
          4.1211,
          4.4245,
          3.9368,
          4.2468,
          4.218,
          3.58,
          3.249,
          2.6854,
          3.0643,
          3.4393,
          2.8452,
          1.9775,
          2.7877,
          3.3098,
          3.2059,
          3.3912,
          4.1136,
          4.3927,
          3.8493,
          3.1503,
          1.8806,
          1.3961,
          1.3058,
          1.8508,
          2.4328,
          3.2004,
          3.9939,
          4.1956,
          4.2247,
          3.3156,
          1.7608,
          1.5019,
          2.0306,
          2.4161,
          3.4822,
          3.7578,
          3.7065,
          4.1573,
          4.5654,
          5.3262,
          5.9062,
          5.733,
          4.6023,
          4.1305,
          4.1621,
          4.0428,
          3.882,
          4.1307,
          4.2884,
          4.705,
          3.9679,
          3.636,
          3.7023,
          3.3167,
          2.9003,
          3.0169,
          3.2859,
          2.7621,
          2.5463,
          2.7361,
          2.4352,
          1.936,
          1.4888,
          1.8858,
          2.9033,
          4.1497,
          5.0572,
          5.4122,
          4.6359,
          4.9261,
          5.8842,
          4.0441,
          2.5252,
          2.0199,
          2.1898,
          3.2208,
          3.7545,
          4.0249,
          3.494,
          2.9692,
          2.1145,
          1.5037,
          1.6302,
          3.3664,
          4.6373,
          4.7534,
          3.9195,
          3.7583,
          3.4635,
          3.4642,
          3.3438,
          2.9973,
          3.0478,
          2.4346,
          2.5849,
          2.6726,
          2.2743,
          1.954,
          1.9047,
          1.5358,
          1.077,
          0.80217,
          1.2537,
          1.8268,
          3.1349,
          4.1865,
          4.6494,
          4.4406,
          4.5819,
          3.801,
          3.2527,
          3.0328,
          2.7983,
          1.9904,
          1.7557,
          1.739,
          1.8195,
          1.3277,
          1.0054,
          0.83416,
          1.1562,
          1.7246,
          2.5694,
          3.2019,
          3.1328,
          2.8596,
          2.1755,
          1.2817,
          1.38,
          1.8069,
          1.7238,
          1.2829,
          1.304,
          2.2857,
          3.9643,
          4.4597,
          3.0537,
          2.4633,
          2.2261,
          1.9133,
          2.3717,
          2.468,
          2.9591,
          3.0881,
          3.2754,
          3.6349,
          3.9959,
          4.0399,
          3.8848,
          3.3811,
          3.0383,
          4.0799,
          5.1678,
          5.2104,
          4.7162,
          4.2281,
          3.9847,
          3.8183,
          3.7098,
          3.8037,
          3.414,
          2.5678,
          2.2273,
          2.6845,
          3.397,
          3.3051,
          2.8179,
          2.3718,
          1.8732,
          1.9582,
          3.2032,
          3.8813,
          2.6252,
          1.8196,
          1.7151,
          1.9966,
          2.3881,
          2.6896,
          3.3791,
          4.0183,
          4.2289,
          3.738,
          3.699,
          4.0333,
          4.3406,
          5.6897,
          4.8323,
          3.4822,
          2.6128,
          2.3328,
          1.9026,
          1.9871,
          3.3093,
          4.0121,
          4.1937,
          4.1987,
          3.8022,
          3.9288,
          3.7959,
          3.3501,
          3.4878,
          3.8885,
          4.0492,
          4.173,
          4.2714,
          3.8043,
          3.6694,
          3.0906,
          2.7318,
          2.4038,
          2.2071,
          2.1369,
          1.9643,
          1.614,
          1.3349,
          2.0534,
          2.5936,
          3.417,
          3.5693,
          3.3673,
          3.4006,
          3.7418,
          2.5509,
          1.5454,
          1.2989,
          1.5429,
          1.6198,
          1.8482,
          2.6399,
          3.1979,
          3.7785,
          3.7562,
          3.7263,
          3.4648,
          2.8625,
          1.7752,
          1.434,
          2.2256,
          2.6487,
          3.3412,
          3.6171,
          4.141,
          4.9448,
          5.3409,
          4.3721,
          4.073,
          4.2688,
          3.9481,
          3.4723,
          3.4922,
          3.5745,
          3.5214,
          3.2454,
          2.8514,
          2.877,
          3.1409,
          3.04,
          2.6971,
          2.2478,
          1.301,
          0.97861,
          1.1688,
          2.019,
          3.3115,
          3.0005,
          2.709,
          3.615,
          4.7052,
          3.9625,
          4.3317,
          5.1974,
          4.0565,
          3.544,
          4.2418,
          3.7987,
          3.6586,
          3.4613,
          3.5243,
          3.4994,
          3.2978,
          3.6034,
          4.4758,
          4.7372,
          4.045,
          3.6075,
          3.6889,
          3.7465,
          3.648,
          4.0047,
          4.9821,
          4.682,
          3.379,
          2.5856,
          2.1514,
          2.6663,
          3.6979,
          3.5498,
          2.8869,
          2.4587,
          1.49,
          1.425,
          2.3838,
          3.9132,
          3.7685,
          3.0992,
          2.7613,
          3.4406,
          4.9214,
          4.9611,
          4.6495,
          4.1635,
          4.5055,
          4.2611,
          3.6388,
          3.0805,
          2.5008,
          2.7637,
          3.3974,
          3.5311,
          3.7017,
          4.0437,
          4.7757,
          5.1127,
          4.655,
          4.3852,
          3.91,
          4.0301,
          3.7422,
          3.9671,
          4.4482,
          4.2867,
          3.8466,
          3.7529,
          3.4379,
          3.1991,
          3.1545,
          3.0569,
          3.078,
          3.5484,
          3.3311,
          3.1313,
          2.4473,
          2.287,
          3.3735,
          3.9293,
          3.6354,
          3.5892,
          3.4066,
          3.5448,
          2.6818,
          1.7463,
          1.3873,
          1.8679,
          2.8181,
          2.8057,
          2.4289,
          2.4159,
          2.7299,
          3.3085,
          3.5349,
          3.7576,
          3.6698,
          3.6409,
          3.5455,
          3.493,
          4.0317,
          4.395,
          4.9098,
          4.7691,
          4.6962,
          4.7153,
          4.14,
          3.6898,
          3.7715,
          4.1651,
          4.1412,
          3.8122,
          3.6608,
          3.6648,
          3.2394,
          3.1386,
          2.8681,
          2.5501,
          2.3432,
          2.4225,
          2.4008,
          2.8741,
          4.5519,
          5.6817,
          4.6232,
          4.024,
          3.6521,
          3.9937,
          4.0714,
          3.8482,
          3.8045,
          3.196,
          2.9819,
          2.9476,
          2.7836,
          2.967,
          3.8016,
          4.0706,
          3.3776,
          3.1163,
          2.4115,
          2.3616,
          3.2453,
          3.6866,
          2.9987,
          2.8096,
          2.3161,
          1.7837,
          1.5921,
          1.6149,
          1.5681,
          1.7381,
          1.7092,
          2.2585,
          2.9073,
          4.2819,
          4.599,
          3.2051,
          3.1044,
          3.2518,
          2.715,
          2.0117,
          1.823,
          2.138,
          2.6769,
          2.9087,
          3.2867,
          2.6276,
          1.8466,
          2.0935,
          1.9831,
          2.0017,
          2.1867,
          2.4438,
          2.492,
          2.9957,
          3.3662,
          3.5382,
          3.7345,
          4.131,
          4.2326,
          3.6425,
          3.4644,
          3.4894,
          3.3747,
          2.9191,
          2.581,
          2.9791,
          2.5768,
          1.7056,
          1.8329,
          2.4442,
          2.8097,
          2.6949,
          2.2596,
          1.905,
          1.4845,
          1.6959,
          2.3208,
          2.8521,
          2.9291,
          3.3465,
          3.9341,
          4.0705,
          3.6392,
          3.124,
          3.3988,
          3.1091,
          2.9591,
          2.4279,
          2.3574,
          2.7928,
          3.3848,
          4.2292,
          4.4799,
          3.7688,
          3.1289,
          3.052,
          3.0141,
          2.5811,
          2.357,
          2.1718,
          2.4058,
          2.9306,
          3.5812,
          4.1168,
          3.984,
          3.4896,
          3.478,
          3.2645,
          3.3916,
          3.5531,
          3.8223,
          3.4463,
          2.8751,
          2.9918,
          3.0532,
          2.879,
          2.7541,
          3.0722,
          3.3344,
          4.4098,
          4.2309,
          3.9069,
          3.8451,
          3.5285,
          3.797,
          4.778,
          4.3979,
          3.8099,
          3.2522,
          2.4878,
          2.2503,
          2.6285,
          2.3695,
          1.6385,
          1.4819,
          1.4143,
          1.7601,
          2.3886,
          2.4217,
          2.2757,
          1.9839,
          2.0795,
          2.8051,
          2.8285,
          2.7526,
          3.4677,
          4.617,
          4.9785,
          4.969,
          5.3994,
          4.6365,
          3.8907,
          3.7679,
          3.9358,
          4.4521,
          4.2068,
          3.9556,
          3.8212,
          3.5232,
          3.751,
          3.7155,
          3.3788,
          3.0941,
          3.1776,
          3.1423,
          2.8792,
          2.3697,
          2.4495,
          3.5407,
          3.9681,
          3.0191,
          2.2113,
          2.1681,
          2.7424,
          2.9533,
          2.9081,
          2.8547,
          3.1205,
          2.9972,
          3.059,
          3.208,
          3.4099,
          2.6916,
          2.0156,
          1.7175,
          1.3868,
          1.2174,
          1.3739,
          2.1129,
          2.7374,
          2.5832,
          1.9494,
          1.8973,
          2.3566,
          2.817,
          3.1218,
          3.2848,
          3.3512,
          3.2438,
          3.4381,
          3.2678,
          2.83,
          3.0302,
          3.7199,
          3.4704,
          3.2518,
          3.1385,
          3.4738,
          3.6551,
          3.59,
          3.5796,
          3.5078,
          3.2647,
          2.9029,
          2.3449,
          1.7487,
          1.8475,
          2.3562,
          2.9773,
          2.7373,
          2.4941,
          2.0952,
          2.3013,
          2.652,
          3.201,
          4.1203,
          3.8452,
          2.9754,
          3.0194,
          3.222,
          2.6061,
          2.0611,
          2.2448,
          2.7689,
          2.7281,
          2.7251,
          2.9154,
          3.0096,
          3.3387,
          3.6708,
          4.0579,
          4.1676,
          4.2325,
          3.6776,
          3.3861,
          3.8024,
          4.2224,
          3.9879,
          3.9061,
          3.4657,
          3.1144,
          2.4056,
          2.3612,
          2.6089,
          2.7909,
          3.4361,
          3.7368,
          3.534,
          3.6769,
          3.6718,
          3.506,
          3.6677,
          3.3521,
          3.2635,
          2.8937,
          2.3809,
          2.4081,
          2.6219,
          2.8737,
          3.151,
          3.3743,
          3.3663,
          3.1472,
          3.1678,
          3.3699,
          3.1791,
          2.7873,
          2.6334,
          3.2343,
          3.6992,
          3.1985,
          3.0161,
          2.8241,
          2.5378,
          2.1205,
          2.1548,
          2.1902,
          2.0362,
          2.2068,
          2.4405,
          2.5231,
          2.656,
          2.6802,
          2.7188,
          2.2507,
          1.7474,
          2.3191,
          3.247,
          2.9152,
          2.728,
          2.7689,
          2.9148,
          3.3729,
          3.9099,
          3.7363,
          3.7559,
          3.6549,
          3.0811,
          3.3309,
          4.1271,
          3.8645,
          3.2766,
          2.2728,
          2.0079,
          2.7288,
          3.8974,
          4.5437,
          3.2872,
          2.3055,
          2.5604,
          3.2521,
          3.055,
          3.8133,
          4.6088,
          3.7366,
          2.8968,
          3.0076,
          3.1813,
          3.205,
          3.4642,
          3.527,
          3.2328,
          2.6215,
          2.0021,
          2.2306,
          3.1298,
          4.3462,
          4.3956,
          3.4336,
          2.8659,
          2.7925,
          2.6369,
          2.394,
          2.7566,
          3.5609,
          4.1493,
          3.5769,
          3.0714,
          3.0663,
          3.6578,
          3.6518,
          3.7525,
          3.7403,
          3.8066,
          3.4713,
          2.9879,
          2.6679,
          2.5153,
          2.0446,
          1.6732,
          2.1314,
          2.837,
          3.7838,
          4.0917,
          3.8211,
          3.7074,
          3.3792,
          3.2679,
          3.3252,
          3.4971,
          4.1978,
          3.8282,
          3.3711,
          3.2805,
          2.4756,
          2.3976,
          2.9394,
          2.8267,
          2.6027,
          2.4407,
          2.2347,
          1.9012,
          2.157,
          2.9411,
          3.519,
          3.3546,
          2.6357,
          2.4351,
          2.3878,
          2.6957,
          3.1247,
          3.6223,
          3.4046,
          3.6768,
          3.2276,
          2.3639,
          2.9467,
          3.026,
          2.3008,
          2.6412,
          3.0417,
          3.0479,
          3.1269,
          3.1132,
          3.0731,
          2.7867,
          2.7166,
          2.7562,
          2.5065,
          2.6663,
          2.7196,
          2.8046,
          2.8361,
          3.0311,
          2.7833,
          2.6766,
          3.0945,
          3.988,
          4.0624,
          3.7569,
          3.3413,
          2.7835,
          2.5608,
          3.1176,
          3.7352,
          3.4366,
          3.4339,
          3.4705,
          3.0648,
          2.8622,
          2.587,
          2.6228,
          2.5607,
          2.5428,
          2.9099,
          3.6353,
          3.9132,
          3.5026,
          3.745,
          3.7469,
          3.1659,
          2.7634,
          2.2327,
          2.2514,
          2.5591,
          3.1002,
          3.1972,
          2.9077,
          3.1208,
          2.8019,
          2.7919,
          3.0621,
          3.609,
          4.1542,
          3.807,
          3.4924,
          3.5493,
          3.4391,
          3.2471,
          2.9954,
          2.9123,
          3.3161,
          3.399,
          3.1831,
          3.1809,
          3.6935,
          3.4516,
          3.0317,
          2.8289,
          3.4004,
          3.6102,
          3.0233,
          2.8427,
          3.0296,
          3.409,
          3.7173,
          3.3584,
          2.5439,
          2.379,
          2.978,
          3.3895,
          3.1042,
          2.3927,
          2.2297,
          2.4583,
          2.7185,
          2.895,
          3.077,
          3.7443,
          3.9818,
          3.9634,
          4.1017,
          4.313,
          4.0823,
          3.595,
          3.1632,
          2.9402,
          2.9747,
          2.7758,
          2.9807,
          2.7177,
          2.7993,
          2.7634,
          2.3552,
          2.4805,
          2.4848,
          2.5419,
          2.6999,
          2.8947,
          2.7202,
          2.6264,
          2.3473,
          2.2798,
          2.4162,
          2.6248,
          2.9143,
          2.7866,
          2.6682,
          2.3079,
          2.2234,
          2.2968,
          2.3832,
          2.1109,
          2.501,
          3.1419,
          3.7503,
          3.7816,
          3.7724,
          3.6135,
          3.144,
          3.1274,
          2.9085,
          2.9903,
          3.2186,
          2.941,
          3.0641,
          3.0758,
          3.0585,
          3.6385,
          3.9964,
          3.6372,
          3.281,
          3.1926,
          2.9903,
          2.68,
          2.3384,
          2.589,
          2.8696,
          3.2243,
          3.2504,
          3.092,
          3.0356,
          3.5841,
          3.9124,
          3.5942,
          3.1221,
          2.8346,
          3.024,
          3.1884,
          3.1974,
          3.1403,
          3.4248,
          3.5948,
          2.8389,
          2.0879,
          2.1193,
          2.5283,
          2.839,
          3.0658,
          3.4009,
          3.3046,
          3.1039,
          2.818,
          3.1231,
          3.2983,
          2.8907,
          2.6245,
          2.724,
          3.1008,
          2.9385,
          2.6452,
          2.8613,
          3.4217,
          3.5024,
          3.1848,
          2.8838,
          3.0186,
          3.2317,
          3.345,
          3.3051,
          3.1982,
          3.1571,
          3.2547,
          3.8259,
          3.9007,
          3.3909,
          3.14,
          3.1093,
          3.0868,
          2.9263,
          2.7909,
          2.636,
          2.5213,
          2.9635,
          3.4778,
          3.3076,
          3.268,
          3.1869,
          3.5088,
          3.6414,
          3.8565,
          3.7649,
          3.2959,
          3.2469,
          3.4131,
          3.4003,
          2.8154,
          2.8419,
          3.0142,
          2.9511,
          3.1368,
          2.9011,
          2.395,
          2.1912,
          2.3459,
          2.6674,
          2.5604,
          2.5973,
          2.8706,
          2.8413,
          2.8078,
          2.9094,
          2.9815,
          2.6329,
          2.3477,
          2.5788,
          3.0094,
          3.072,
          3.1081,
          2.731,
          2.5349,
          2.399,
          2.3518,
          2.656,
          2.9209,
          3.2804,
          3.3045,
          3.3846,
          3.5347,
          3.1345,
          3.128,
          3.094,
          3.04,
          3.0006,
          2.5958,
          2.67,
          3.387,
          3.5641,
          3.6058,
          3.5937,
          3.095,
          2.7595,
          2.7785,
          2.8879,
          2.96,
          2.8832,
          2.986,
          3.1347,
          3.2321,
          3.5323,
          3.6022,
          3.4414,
          3.1746,
          3.0962,
          2.7715,
          2.7844,
          3.1857,
          3.3107,
          2.9258,
          2.864,
          3.0088,
          2.812,
          2.7747,
          3.2674,
          3.6898,
          3.4211,
          3.271,
          3.5159,
          3.3107,
          2.9471,
          2.8372,
          2.8956,
          3.1474,
          3.1507,
          3.3382,
          3.3057,
          3.0206,
          2.9313,
          3.0131,
          3.2629,
          3.4716,
          3.6206,
          3.4977,
          3.2233,
          2.838,
          2.6357,
          2.9839,
          3.4663,
          3.52,
          3.3287,
          3.0749,
          3.2629,
          3.0473,
          3.5328,
          3.5765,
          3.4701,
          3.3829,
          3.1753,
          3.215,
          2.9633,
          3.0727,
          2.9476,
          2.7063,
          2.7849,
          2.6773,
          2.7881,
          3.0749,
          3.2935,
          3.1112,
          3.0815,
          3.0912,
          3.3697,
          3.5346,
          3.2336,
          2.9892,
          2.9396,
          2.9238,
          3.2743,
          3.333,
          3.1188,
          3.014,
          3.0944,
          3.2378,
          3.1571,
          3.1745,
          3.1876,
          3.1767,
          2.8836,
          2.9041,
          2.8604,
          3.0546,
          3.3613,
          3.455,
          3.3892,
          3.2945,
          3.3094,
          3.044,
          3.0148,
          3.0916,
          3.4463,
          3.5382,
          3.3444,
          3.1805,
          2.969,
          2.799,
          2.7594,
          3.0345,
          3.4457,
          3.3828,
          3.3949,
          3.5399,
          3.3806,
          3.0746,
          3.3341,
          3.4554,
          3.1833,
          2.8467,
          2.7778,
          2.7473,
          2.8994,
          3.0233,
          3.271,
          3.4961,
          3.3856,
          3.3185,
          3.5087,
          3.1915,
          2.8986,
          2.9886,
          3.2018,
          3.3762,
          3.1714,
          2.9782,
          3.1852,
          3.1238,
          3.0836,
          3.2196,
          3.1615,
          3.2746,
          3.165,
          3.1116,
          3.0212,
          3.0415,
          3.2657,
          3.4498,
          3.3686,
          3.2862,
          3.2301,
          3.2745,
          3.0044,
          3.0563,
          2.983,
          2.9718,
          3.1589,
          3.0734,
          3.2604,
          3.227,
          3.2608,
          3.4984,
          3.1954,
          3.0049,
          3.1516,
          3.2972,
          3.1933,
          3.4298,
          3.4638,
          3.275,
          3.1812,
          3.4535,
          3.2244,
          3.2645,
          3.0101,
          2.9661,
          3.0091,
          3.4205,
          3.6021,
          3.4242,
          3.397,
          3.5839,
          3.6966,
          3.631,
          3.6163,
          3.6431,
          3.6344,
          3.3945,
          3.1433,
          3.1851,
          3.171,
          3.3524,
          3.4772,
          3.4351,
          3.6104,
          3.6148,
          3.3143,
          3.1426,
          3.3764,
          3.6622,
          3.6502,
          3.6567,
          3.8616,
          3.7551,
          3.7103,
          3.7386,
          3.7719,
          3.8607,
          3.8904,
          3.5199,
          3.5472,
          3.392,
          3.6304,
          3.5426,
          3.5201,
          3.4733,
          3.4676,
          3.5619,
          3.7594,
          3.472,
          3.5685,
          3.4237,
          3.5773,
          3.4624,
          3.6309,
          3.2056,
          3.441,
          3.4465,
          3.373,
          3.1605,
          3.3572,
          3.3378,
          3.4267,
          3.296,
          3.544,
          3.7131,
          3.5222,
          3.5541,
          3.4828,
          3.5137,
          3.4504,
          3.4707,
          3.4329,
          3.387,
          3.4777,
          3.7371,
          3.6948,
          3.7806,
          3.7019,
          3.4582,
          3.3597,
          3.3983,
          3.4748,
          3.2767,
          3.4657,
          3.5733,
          3.6591,
          3.5656,
          3.6456,
          3.3684,
          3.531,
          3.6116,
          3.3462,
          3.3052,
          3.4252,
          3.388,
          3.2569,
          3.1328,
          3.037,
          3.2641,
          3.3313,
          3.3259,
          3.3108,
          3.3088,
          3.2675,
          3.2912,
          3.3619,
          3.1982,
          3.2274,
          3.2292,
          3.3428,
          3.2528,
          3.3754,
          3.4598,
          3.4143,
          3.5135,
          3.5805,
          3.268,
          3.2144,
          3.4898,
          3.498,
          3.3782,
          3.5756,
          3.4819,
          3.5517,
          3.6214,
          3.6516,
          3.4576,
          3.288,
          3.4046,
          3.4633,
          3.6948,
          3.6157,
          3.6023,
          3.2608,
          3.3251,
          3.4918,
          3.3612,
          3.5566,
          3.6452,
          3.6778,
          3.5929,
          3.5711,
          3.701,
          3.6939,
          3.6044,
          3.596,
          3.6077,
          3.63,
          3.6491,
          3.6242,
          3.5765,
          3.7169,
          3.8086,
          3.7836,
          3.6976,
          3.4531,
          3.4673,
          3.3247,
          3.5226,
          3.5353,
          3.5363,
          3.5409,
          3.6476,
          3.4813,
          3.5899,
          3.7143,
          3.5923,
          3.5845,
          3.6655,
          3.6417,
          3.5333,
          3.6064,
          3.7099,
          3.7236,
          3.5919,
          3.5056,
          3.4139,
          3.6923,
          3.7335,
          3.6647,
          3.578,
          3.5542,
          3.6217,
          3.6711,
          3.6501,
          3.5075,
          3.5708,
          3.6961,
          3.6918,
          3.5978,
          3.5539,
          3.4573,
          3.7175,
          3.6502,
          3.6326,
          3.4838,
          3.5289,
          3.5447,
          3.5415,
          3.5455,
          3.668,
          3.7498,
          3.9249,
          3.7397,
          3.8244,
          3.8388,
          3.7848,
          3.6284,
          3.6829,
          3.6993,
          3.6774,
          3.6401,
          3.7169,
          3.729,
          3.6735,
          3.6499,
          3.6378,
          3.5671,
          3.7757,
          3.7567,
          3.6974,
          3.5349,
          3.6555,
          3.6881,
          3.5525,
          3.6763,
          3.6937,
          3.7135,
          3.692,
          3.5486,
          3.6063,
          3.618,
          3.5938,
          3.6525,
          3.6584,
          3.6541,
          3.7187,
          3.6656,
          3.6812,
          3.6205,
          3.6265,
          3.7527,
          3.6951,
          3.7658,
          3.7269,
          3.7125,
          3.7129,
          3.7251,
          3.7539,
          3.7107,
          3.7627,
          3.7404,
          3.6933,
          3.7786,
          3.8172,
          3.8408,
          3.8021,
          3.7484,
          3.8357,
          3.6881,
          3.6317,
          3.7031,
          3.6621,
          3.695,
          3.6734,
          3.8003,
          3.744,
          3.719,
          3.6451,
          3.7867,
          3.7047,
          3.5951,
          3.5945,
          3.6772,
          3.6945,
          3.6305,
          3.6301,
          3.6816,
          3.5471,
          3.6568,
          3.7768,
          3.7555,
          3.5328,
          3.7421,
          3.6849,
          3.6155,
          3.7273,
          3.7594,
          3.7046,
          3.6806,
          3.647,
          3.5292,
          3.71,
          3.852,
          3.6693,
          3.5667,
          3.6264,
          3.6011,
          3.6879,
          3.564,
          3.6155,
          3.5784,
          3.6683,
          3.5189,
          3.5724,
          3.6343,
          3.6169,
          3.5445,
          3.6373,
          3.6066,
          3.5792,
          3.5684,
          3.6082,
          3.6238,
          3.6473,
          3.7578,
          3.6979,
          3.7174,
          3.6876,
          3.6027,
          3.6019,
          3.6657,
          3.6465,
          3.6271,
          3.6772,
          3.6712,
          3.5956,
          3.5893,
          3.6493,
          3.6042,
          3.5152,
          3.5816,
          3.5118,
          3.5594,
          3.5934,
          3.6098,
          3.6014,
          3.5824,
          3.6953,
          3.5056,
          3.6462,
          3.643,
          3.6338,
          3.637,
          3.5155,
          3.5597,
          3.4971,
          3.5225,
          3.5269,
          3.6604,
          3.489,
          3.5918,
          3.5182,
          3.5209,
          3.4212,
          3.691,
          3.6069,
          3.666,
          3.4798,
          3.5681,
          3.4688,
          3.4663,
          3.5363,
          3.4888,
          3.4437,
          3.4809,
          3.3619,
          3.4557,
          3.3319,
          3.4193,
          3.489,
          3.3995,
          3.4684,
          3.5256,
          3.4857,
          3.4956,
          3.3995,
          3.4712,
          3.5466,
          3.5225,
          3.4915,
          3.4109,
          3.4309,
          3.4866,
          3.3628,
          3.4682,
          3.4565,
          3.4948,
          3.321,
          3.4078,
          3.4127,
          3.3222,
          3.4528,
          3.4722,
          3.3971,
          3.4559,
          3.3824,
          3.2532,
          3.3457,
          3.4613,
          3.3955,
          3.4531,
          3.3965,
          3.3285,
          3.3505,
          3.3139,
          3.3109,
          3.2876,
          3.2734,
          3.3497,
          3.2565,
          3.19,
          3.3279,
          3.3001,
          3.3564,
          3.3392,
          3.3992,
          3.3689,
          3.3366,
          3.237,
          3.409,
          3.192,
          3.2834,
          3.226,
          3.1928,
          3.4163,
          3.1726,
          3.1811,
          3.3156,
          3.0866,
          3.2398,
          3.2565,
          3.156,
          3.1997,
          3.1784,
          3.3303,
          3.3217,
          3.2333,
          3.2347,
          3.2264,
          3.2311,
          3.2391,
          3.2549,
          3.1768,
          3.3337,
          3.1988,
          3.283,
          3.1001,
          3.0393,
          3.1096,
          3.1425,
          3.1037,
          3.0353,
          3.1515,
          3.1099,
          3.2614,
          3.2406,
          3.0799,
          3.2933,
          3.0708,
          3.0408,
          3.114,
          3.0289,
          3.1138,
          3.0933,
          3.2005,
          3.1141,
          3.0658,
          3.1357,
          3.0981,
          3.0143,
          3.2018,
          2.931,
          3.2379,
          3.0466,
          2.9749,
          3.0116,
          3.03,
          2.9701,
          3.1112,
          2.9983,
          2.9553,
          2.9629,
          2.9787,
          3.0705,
          2.9534,
          2.9944,
          2.988,
          2.8511,
          2.9928,
          2.8909,
          2.9567,
          2.8975,
          2.874,
          2.9227,
          2.8519,
          2.8309,
          2.7446,
          2.931,
          2.8223,
          2.7082,
          2.9518,
          2.799,
          2.858,
          2.9017,
          2.8289,
          2.7238,
          2.7085,
          2.9293,
          2.8739,
          2.6745,
          2.6781,
          2.7228,
          2.8656,
          2.8613,
          2.8671,
          3.0144,
          2.8011,
          2.8981,
          2.7022,
          2.6658,
          2.7878,
          2.5013,
          2.6631,
          2.8146,
          2.664,
          2.7803,
          2.5595,
          2.5857,
          2.7129,
          2.7632,
          2.7789,
          2.9003,
          2.5986,
          2.5619,
          2.7101,
          2.7054,
          2.526,
          2.5026,
          2.6031,
          2.5921,
          2.6161,
          2.5147,
          2.4584,
          2.4916,
          2.6625,
          2.4725,
          2.4438,
          2.5222,
          2.4293,
          2.7442,
          2.6537,
          2.3817,
          2.6887,
          2.5116,
          2.6099,
          2.4244,
          2.3222,
          2.6816,
          2.5162,
          2.4429,
          2.5528,
          2.2236,
          2.3647,
          2.6845,
          2.4126,
          2.4593,
          2.4322,
          2.3003,
          2.4803,
          2.4918,
          2.5854,
          2.2471,
          2.2505,
          2.4754,
          2.3832,
          2.2258,
          2.614,
          2.3634,
          2.5051,
          2.3615,
          2.1659,
          2.4162,
          2.3759,
          2.5401,
          2.2061,
          2.4532,
          2.159,
          2.3419,
          2.5314,
          2.3204,
          2.3083,
          2.2708,
          2.5933,
          2.1717,
          2.2329,
          2.2486,
          2.1185,
          2.4588,
          2.0396,
          2.2502,
          2.197,
          2.3907,
          2.3653,
          2.144,
          2.3288,
          2.1294,
          1.9557,
          2.1221,
          2.3013,
          1.9511,
          1.7318,
          2.1575,
          2.2812,
          2.2094,
          1.9714,
          2.3956,
          1.7941,
          2.1797,
          2.5018,
          1.9145,
          2.2696,
          2.0015,
          2.2052,
          2.3369,
          2.4796,
          2.5055,
          2.3636,
          2.2113,
          1.7092,
          2.0655,
          1.7665,
          2.161,
          2.014,
          2.344,
          1.6266,
          2.4785,
          2.0187,
          1.8261,
          2.1573,
          2.3821,
          2.2008,
          2.141,
          2.0355,
          1.6797,
          2.5077,
          3.0034,
          1.8551,
          2.1588,
          1.9349,
          2.1044,
          2.227,
          3.0143,
          2.3934,
          2.724,
          2.3857,
          2.54,
          2.1495,
          2.1495,
          1.8676,
          2.1202,
          2.1847
        ],
        [
          0.42672,
          0.36374,
          0.40683,
          0.40006,
          0.37745,
          0.36823,
          0.36858,
          0.3526,
          0.34378,
          0.34742,
          0.34457,
          0.34809,
          0.3909,
          0.41443,
          0.44025,
          0.44072,
          0.45842,
          0.4389,
          0.42888,
          0.39934,
          0.39025,
          0.39285,
          0.40859,
          0.39547,
          0.38113,
          0.38254,
          0.3863,
          0.37625,
          0.38447,
          0.36383,
          0.3765,
          0.36303,
          0.36372,
          0.36749,
          0.37373,
          0.36687,
          0.38022,
          0.35778,
          0.35961,
          0.33265,
          0.33408,
          0.32722,
          0.33268,
          0.33938,
          0.35857,
          0.37679,
          0.34965,
          0.36323,
          0.33106,
          0.34029,
          0.3361,
          0.341,
          0.3217,
          0.29456,
          0.30152,
          0.27845,
          0.29162,
          0.28686,
          0.2848,
          0.28365,
          0.28004,
          0.27796,
          0.26876,
          0.26405,
          0.25627,
          0.26059,
          0.26004,
          0.251,
          0.25299,
          0.26068,
          0.25149,
          0.26159,
          0.26896,
          0.27648,
          0.28275,
          0.31688,
          0.33527,
          0.38846,
          0.39231,
          0.35497,
          0.34472,
          0.3395,
          0.34413,
          0.34394,
          0.34388,
          0.36054,
          0.33189,
          0.33729,
          0.30707,
          0.30291,
          0.27703,
          0.27845,
          0.27337,
          0.25575,
          0.25636,
          0.25522,
          0.246,
          0.24906,
          0.24811,
          0.24031,
          0.23751,
          0.23693,
          0.23459,
          0.2347,
          0.23125,
          0.24983,
          0.2987,
          0.3175,
          0.30901,
          0.29614,
          0.28181,
          0.2881,
          0.30077,
          0.31671,
          0.30986,
          0.32141,
          0.31596,
          0.32183,
          0.32072,
          0.34034,
          0.31541,
          0.28798,
          0.28597,
          0.30072,
          0.28744,
          0.28876,
          0.27978,
          0.27621,
          0.27405,
          0.26402,
          0.25539,
          0.26146,
          0.27083,
          0.26031,
          0.27812,
          0.25451,
          0.25362,
          0.24822,
          0.25706,
          0.26869,
          0.27073,
          0.31158,
          0.32775,
          0.29469,
          0.24368,
          0.22932,
          0.22275,
          0.22627,
          0.24416,
          0.27207,
          0.28652,
          0.23976,
          0.22572,
          0.22766,
          0.23007,
          0.2187,
          0.2134,
          0.21177,
          0.21941,
          0.22033,
          0.21829,
          0.23377,
          0.23918,
          0.23803,
          0.25256,
          0.27048,
          0.28127,
          0.30339,
          0.32316,
          0.31662,
          0.33892,
          0.36742,
          0.30636,
          0.30048,
          0.29626,
          0.33333,
          0.35462,
          0.41329,
          0.48603,
          0.54248,
          0.42072,
          0.39374,
          0.38894,
          0.35967,
          0.34233,
          0.34661,
          0.32504,
          0.30248,
          0.30959,
          0.3151,
          0.30839,
          0.29113,
          0.2931,
          0.28998,
          0.29023,
          0.31165,
          0.28859,
          0.29282,
          0.2776,
          0.26441,
          0.28601,
          0.30424,
          0.2804,
          0.27529,
          0.2672,
          0.26243,
          0.2524,
          0.259,
          0.27218,
          0.26115,
          0.24783,
          0.23745,
          0.24256,
          0.24465,
          0.24183,
          0.24328,
          0.23956,
          0.24349,
          0.24743,
          0.23439,
          0.23466,
          0.22824,
          0.22902,
          0.232,
          0.23281,
          0.22352,
          0.22391,
          0.2208,
          0.21603,
          0.21632,
          0.21375,
          0.2146,
          0.21388,
          0.21386,
          0.2073,
          0.22785,
          0.23565,
          0.26309,
          0.23122,
          0.21507,
          0.2018,
          0.20455,
          0.20419,
          0.20574,
          0.20874,
          0.20651,
          0.20727,
          0.20307,
          0.22239,
          0.22262,
          0.21722,
          0.23149,
          0.22455,
          0.20587,
          0.20641,
          0.20838,
          0.21043,
          0.22154,
          0.22531,
          0.21695,
          0.21261,
          0.20607,
          0.21145,
          0.20778,
          0.22275,
          0.23273,
          0.23006,
          0.21197,
          0.21282,
          0.21365,
          0.20853,
          0.22038,
          0.23757,
          0.22362,
          0.21124,
          0.20368,
          0.2103,
          0.20867,
          0.19855,
          0.20079,
          0.1921,
          0.19539,
          0.19339,
          0.19156,
          0.19611,
          0.1919,
          0.18921,
          0.19071,
          0.18703,
          0.17818,
          0.17523,
          0.1689,
          0.16637,
          0.17,
          0.16845,
          0.17527,
          0.18026,
          0.1752,
          0.1628,
          0.16069,
          0.1589,
          0.15772,
          0.16448,
          0.1673,
          0.17308,
          0.17213,
          0.17464,
          0.18012,
          0.173,
          0.17261,
          0.17076,
          0.16832,
          0.17163,
          0.16973,
          0.16893,
          0.15707,
          0.15246,
          0.15042,
          0.14652,
          0.14358,
          0.14393,
          0.14047,
          0.14567,
          0.1529,
          0.16604,
          0.17887,
          0.1802,
          0.1722,
          0.16795,
          0.16693,
          0.15317,
          0.15386,
          0.14355,
          0.13943,
          0.13901,
          0.13895,
          0.13761,
          0.13819,
          0.13457,
          0.13219,
          0.13177,
          0.13441,
          0.13952,
          0.15032,
          0.18893,
          0.21854,
          0.18644,
          0.1722,
          0.17038,
          0.1709,
          0.16982,
          0.17187,
          0.16146,
          0.17141,
          0.17204,
          0.17264,
          0.16681,
          0.16049,
          0.15276,
          0.15301,
          0.14984,
          0.15108,
          0.15767,
          0.16114,
          0.15892,
          0.15337,
          0.1532,
          0.15314,
          0.17291,
          0.19812,
          0.20843,
          0.20904,
          0.17325,
          0.15721,
          0.15158,
          0.14961,
          0.14593,
          0.13994,
          0.13535,
          0.13601,
          0.13174,
          0.13601,
          0.14284,
          0.1417,
          0.1456,
          0.14356,
          0.14864,
          0.15176,
          0.15989,
          0.16486,
          0.17228,
          0.19088,
          0.19085,
          0.18817,
          0.19798,
          0.23762,
          0.22745,
          0.19671,
          0.16938,
          0.15117,
          0.1468,
          0.15305,
          0.16462,
          0.18451,
          0.19728,
          0.21479,
          0.18776,
          0.18352,
          0.18741,
          0.17728,
          0.16566,
          0.16083,
          0.16254,
          0.16142,
          0.17169,
          0.16921,
          0.16611,
          0.17326,
          0.16988,
          0.16493,
          0.15849,
          0.15443,
          0.15938,
          0.16772,
          0.20753,
          0.19492,
          0.17489,
          0.16236,
          0.156,
          0.14947,
          0.14895,
          0.15557,
          0.15941,
          0.14286,
          0.13678,
          0.13555,
          0.13942,
          0.14511,
          0.15395,
          0.166,
          0.16943,
          0.16065,
          0.15907,
          0.15879,
          0.15354,
          0.14542,
          0.14006,
          0.14459,
          0.14753,
          0.14257,
          0.13675,
          0.14139,
          0.14614,
          0.14745,
          0.14595,
          0.15411,
          0.15877,
          0.15622,
          0.14167,
          0.12905,
          0.12116,
          0.123,
          0.12551,
          0.12816,
          0.13766,
          0.14568,
          0.15257,
          0.15094,
          0.13557,
          0.13021,
          0.11903,
          0.12262,
          0.12563,
          0.13113,
          0.13771,
          0.13819,
          0.13881,
          0.14992,
          0.16239,
          0.17392,
          0.16479,
          0.15037,
          0.14881,
          0.14964,
          0.14692,
          0.13708,
          0.13789,
          0.13867,
          0.1423,
          0.13136,
          0.12938,
          0.13188,
          0.13364,
          0.1296,
          0.12617,
          0.12554,
          0.12075,
          0.12133,
          0.12471,
          0.12229,
          0.11659,
          0.1167,
          0.12238,
          0.13165,
          0.13507,
          0.15376,
          0.15626,
          0.14534,
          0.14933,
          0.15946,
          0.13179,
          0.11784,
          0.11566,
          0.12695,
          0.13976,
          0.14076,
          0.13354,
          0.12992,
          0.12253,
          0.11588,
          0.11025,
          0.11132,
          0.11979,
          0.13378,
          0.13273,
          0.12311,
          0.12063,
          0.12355,
          0.13146,
          0.1298,
          0.1273,
          0.12325,
          0.12835,
          0.12998,
          0.13423,
          0.13715,
          0.13994,
          0.13237,
          0.12458,
          0.11552,
          0.10989,
          0.10987,
          0.11708,
          0.12603,
          0.13332,
          0.14054,
          0.13303,
          0.13301,
          0.12677,
          0.11967,
          0.11712,
          0.11441,
          0.11077,
          0.10686,
          0.10333,
          0.10207,
          0.099879,
          0.097618,
          0.098343,
          0.098874,
          0.10201,
          0.10843,
          0.11162,
          0.10849,
          0.10545,
          0.10057,
          0.098038,
          0.096934,
          0.10037,
          0.10168,
          0.097983,
          0.096921,
          0.10176,
          0.11431,
          0.11935,
          0.10743,
          0.10393,
          0.10166,
          0.10245,
          0.10283,
          0.10383,
          0.10737,
          0.10798,
          0.11308,
          0.12048,
          0.12103,
          0.11987,
          0.11809,
          0.11479,
          0.11113,
          0.12158,
          0.12964,
          0.1274,
          0.12219,
          0.11801,
          0.11847,
          0.12551,
          0.13231,
          0.12661,
          0.12328,
          0.1114,
          0.10312,
          0.10332,
          0.10729,
          0.10548,
          0.10121,
          0.098396,
          0.096303,
          0.098542,
          0.10854,
          0.11448,
          0.10594,
          0.099387,
          0.099499,
          0.10041,
          0.10347,
          0.10675,
          0.11235,
          0.11857,
          0.12259,
          0.11911,
          0.1226,
          0.12238,
          0.13185,
          0.15466,
          0.15194,
          0.12955,
          0.11873,
          0.11638,
          0.11115,
          0.10999,
          0.11714,
          0.12616,
          0.12789,
          0.122,
          0.11705,
          0.11503,
          0.11493,
          0.11008,
          0.11237,
          0.11716,
          0.11841,
          0.11761,
          0.11513,
          0.10958,
          0.10543,
          0.10014,
          0.097574,
          0.094523,
          0.09275,
          0.092361,
          0.092486,
          0.088601,
          0.08908,
          0.090818,
          0.097063,
          0.10204,
          0.10462,
          0.1074,
          0.1076,
          0.11595,
          0.10929,
          0.10515,
          0.10312,
          0.10255,
          0.099904,
          0.10105,
          0.10107,
          0.10683,
          0.11207,
          0.11056,
          0.10842,
          0.10702,
          0.10065,
          0.093163,
          0.090301,
          0.091925,
          0.096901,
          0.098059,
          0.10167,
          0.10299,
          0.11027,
          0.11693,
          0.10623,
          0.10172,
          0.10129,
          0.097242,
          0.094353,
          0.092569,
          0.094457,
          0.094209,
          0.091451,
          0.09065,
          0.088221,
          0.090872,
          0.090651,
          0.087915,
          0.085107,
          0.081444,
          0.079901,
          0.082124,
          0.088106,
          0.10107,
          0.10457,
          0.10269,
          0.10694,
          0.11088,
          0.10027,
          0.10052,
          0.11284,
          0.10078,
          0.095863,
          0.099985,
          0.10151,
          0.099698,
          0.09919,
          0.096263,
          0.091432,
          0.090526,
          0.091588,
          0.096459,
          0.097822,
          0.091484,
          0.088374,
          0.088933,
          0.087172,
          0.08771,
          0.090398,
          0.098223,
          0.0945,
          0.085994,
          0.084433,
          0.080227,
          0.083695,
          0.090044,
          0.088586,
          0.08117,
          0.076871,
          0.073424,
          0.071863,
          0.076897,
          0.086167,
          0.088466,
          0.084764,
          0.078499,
          0.080478,
          0.088982,
          0.090056,
          0.086509,
          0.083181,
          0.084304,
          0.081042,
          0.077234,
          0.074201,
          0.072147,
          0.071594,
          0.076232,
          0.078368,
          0.077828,
          0.080542,
          0.08426,
          0.086308,
          0.083423,
          0.081729,
          0.079944,
          0.078589,
          0.075685,
          0.077592,
          0.079028,
          0.080703,
          0.079672,
          0.077014,
          0.074079,
          0.071188,
          0.070008,
          0.070428,
          0.072722,
          0.075165,
          0.075407,
          0.075721,
          0.072367,
          0.070705,
          0.074011,
          0.077224,
          0.076437,
          0.074769,
          0.074236,
          0.076659,
          0.073969,
          0.071048,
          0.069606,
          0.069064,
          0.071126,
          0.070056,
          0.066578,
          0.06569,
          0.066955,
          0.069204,
          0.071806,
          0.071703,
          0.072974,
          0.074715,
          0.07707,
          0.080113,
          0.083617,
          0.086459,
          0.0893,
          0.092603,
          0.093032,
          0.090633,
          0.082893,
          0.079269,
          0.078238,
          0.079435,
          0.079244,
          0.076997,
          0.075589,
          0.074976,
          0.072928,
          0.072936,
          0.072303,
          0.071619,
          0.069866,
          0.069771,
          0.07072,
          0.072001,
          0.082782,
          0.093925,
          0.089408,
          0.08417,
          0.078967,
          0.08167,
          0.082473,
          0.084394,
          0.082433,
          0.079027,
          0.077536,
          0.078211,
          0.076988,
          0.07761,
          0.081423,
          0.086875,
          0.086032,
          0.084719,
          0.080844,
          0.078625,
          0.084329,
          0.087633,
          0.084529,
          0.084049,
          0.079745,
          0.07817,
          0.076272,
          0.074873,
          0.075628,
          0.074908,
          0.078076,
          0.081172,
          0.083693,
          0.094124,
          0.09755,
          0.088678,
          0.088676,
          0.09174,
          0.088927,
          0.083869,
          0.080345,
          0.081907,
          0.085562,
          0.08774,
          0.089319,
          0.086446,
          0.082379,
          0.082147,
          0.081745,
          0.079677,
          0.079677,
          0.081409,
          0.082609,
          0.08428,
          0.088903,
          0.093412,
          0.091524,
          0.089428,
          0.087859,
          0.08328,
          0.080792,
          0.080812,
          0.082918,
          0.077986,
          0.07673,
          0.079359,
          0.078732,
          0.0739,
          0.074732,
          0.076944,
          0.079035,
          0.077857,
          0.074222,
          0.069437,
          0.068567,
          0.068339,
          0.072969,
          0.074863,
          0.073928,
          0.074726,
          0.076424,
          0.077563,
          0.074677,
          0.072671,
          0.071814,
          0.069655,
          0.068112,
          0.066121,
          0.065292,
          0.065869,
          0.067957,
          0.072128,
          0.073559,
          0.067019,
          0.063434,
          0.062853,
          0.062763,
          0.061558,
          0.059645,
          0.05912,
          0.059894,
          0.063113,
          0.066435,
          0.070483,
          0.071796,
          0.071513,
          0.071254,
          0.07005,
          0.068997,
          0.068547,
          0.070328,
          0.067886,
          0.065189,
          0.066201,
          0.066236,
          0.064072,
          0.066894,
          0.071271,
          0.072964,
          0.079087,
          0.078376,
          0.077186,
          0.078296,
          0.080494,
          0.08836,
          0.098578,
          0.097128,
          0.092131,
          0.084387,
          0.077848,
          0.075523,
          0.076547,
          0.07105,
          0.067299,
          0.066178,
          0.066168,
          0.06616,
          0.065611,
          0.065274,
          0.063855,
          0.060994,
          0.061591,
          0.065613,
          0.066451,
          0.06346,
          0.064286,
          0.071103,
          0.073003,
          0.073363,
          0.076636,
          0.075125,
          0.075649,
          0.076197,
          0.073758,
          0.073836,
          0.072586,
          0.0707,
          0.069667,
          0.068179,
          0.0698,
          0.070736,
          0.069845,
          0.068273,
          0.068624,
          0.066968,
          0.065803,
          0.062081,
          0.061807,
          0.066935,
          0.068935,
          0.063273,
          0.059425,
          0.060291,
          0.063203,
          0.064195,
          0.065281,
          0.069508,
          0.068594,
          0.063585,
          0.061218,
          0.061955,
          0.063145,
          0.059624,
          0.056271,
          0.054625,
          0.053381,
          0.054654,
          0.056251,
          0.057249,
          0.060232,
          0.059879,
          0.057511,
          0.056941,
          0.059169,
          0.06031,
          0.061725,
          0.063646,
          0.063589,
          0.06217,
          0.062679,
          0.060513,
          0.057559,
          0.059362,
          0.063199,
          0.064433,
          0.064666,
          0.063426,
          0.063809,
          0.067739,
          0.070151,
          0.069043,
          0.069203,
          0.067454,
          0.065991,
          0.062443,
          0.058842,
          0.056523,
          0.057932,
          0.059064,
          0.059025,
          0.060002,
          0.06099,
          0.062212,
          0.064254,
          0.064736,
          0.068436,
          0.067498,
          0.063585,
          0.064361,
          0.065213,
          0.061432,
          0.058521,
          0.059347,
          0.060767,
          0.060556,
          0.06062,
          0.063293,
          0.066563,
          0.067884,
          0.069358,
          0.070908,
          0.07007,
          0.069561,
          0.065935,
          0.065942,
          0.070676,
          0.074207,
          0.071478,
          0.070864,
          0.0684,
          0.066352,
          0.063282,
          0.064574,
          0.065349,
          0.066215,
          0.069604,
          0.071693,
          0.071856,
          0.072459,
          0.071897,
          0.071217,
          0.071946,
          0.070157,
          0.06993,
          0.067941,
          0.064753,
          0.064127,
          0.064374,
          0.065593,
          0.06638,
          0.067666,
          0.066528,
          0.064552,
          0.064384,
          0.066476,
          0.066712,
          0.065714,
          0.068198,
          0.072543,
          0.074159,
          0.072255,
          0.071034,
          0.069547,
          0.067465,
          0.065231,
          0.06301,
          0.060756,
          0.058662,
          0.057744,
          0.056721,
          0.055915,
          0.056214,
          0.056818,
          0.057433,
          0.055942,
          0.055437,
          0.059008,
          0.064459,
          0.064532,
          0.06328,
          0.062276,
          0.062508,
          0.064911,
          0.065924,
          0.066031,
          0.066546,
          0.065449,
          0.064307,
          0.064879,
          0.069174,
          0.067677,
          0.064041,
          0.059807,
          0.057833,
          0.058436,
          0.064232,
          0.068458,
          0.061301,
          0.056034,
          0.057457,
          0.0596,
          0.058893,
          0.061894,
          0.066909,
          0.062978,
          0.059649,
          0.059646,
          0.060336,
          0.060755,
          0.061582,
          0.061957,
          0.060595,
          0.057571,
          0.054681,
          0.055395,
          0.057257,
          0.063841,
          0.06447,
          0.058137,
          0.054649,
          0.054239,
          0.05305,
          0.053059,
          0.054253,
          0.05741,
          0.06003,
          0.058131,
          0.056965,
          0.059133,
          0.061724,
          0.059052,
          0.056712,
          0.056746,
          0.057915,
          0.05609,
          0.053172,
          0.05151,
          0.050677,
          0.049525,
          0.048541,
          0.049921,
          0.052549,
          0.05533,
          0.056608,
          0.056462,
          0.056055,
          0.053673,
          0.052454,
          0.054499,
          0.057364,
          0.059463,
          0.056299,
          0.054729,
          0.05483,
          0.052335,
          0.052229,
          0.054217,
          0.053839,
          0.053009,
          0.053189,
          0.051755,
          0.051545,
          0.051866,
          0.053522,
          0.054613,
          0.053372,
          0.05124,
          0.05114,
          0.051097,
          0.05201,
          0.053676,
          0.054978,
          0.05416,
          0.054779,
          0.053355,
          0.050297,
          0.051614,
          0.052214,
          0.049845,
          0.0503,
          0.052077,
          0.052662,
          0.053369,
          0.055128,
          0.057651,
          0.059979,
          0.059988,
          0.059543,
          0.058106,
          0.058412,
          0.056379,
          0.055116,
          0.056158,
          0.056692,
          0.054168,
          0.053021,
          0.052867,
          0.055723,
          0.055604,
          0.05404,
          0.05352,
          0.049669,
          0.047996,
          0.050193,
          0.053358,
          0.05198,
          0.051615,
          0.051813,
          0.051438,
          0.051895,
          0.055994,
          0.056747,
          0.054914,
          0.054066,
          0.0557,
          0.058217,
          0.057615,
          0.055084,
          0.056167,
          0.0553,
          0.052359,
          0.050653,
          0.049395,
          0.049942,
          0.051743,
          0.053703,
          0.054144,
          0.053044,
          0.055224,
          0.056076,
          0.055567,
          0.054768,
          0.055788,
          0.057727,
          0.056845,
          0.054972,
          0.055748,
          0.055568,
          0.054874,
          0.054473,
          0.053875,
          0.055427,
          0.056335,
          0.054798,
          0.054499,
          0.057821,
          0.05977,
          0.060347,
          0.061385,
          0.064635,
          0.062081,
          0.05745,
          0.056739,
          0.05898,
          0.059539,
          0.058432,
          0.056242,
          0.052761,
          0.052177,
          0.054078,
          0.056527,
          0.055264,
          0.054789,
          0.054436,
          0.053962,
          0.054534,
          0.055335,
          0.055683,
          0.05656,
          0.057655,
          0.058965,
          0.059575,
          0.059248,
          0.056843,
          0.055244,
          0.052964,
          0.051165,
          0.050599,
          0.049555,
          0.050654,
          0.04981,
          0.050958,
          0.052243,
          0.05056,
          0.049729,
          0.048794,
          0.047464,
          0.047784,
          0.048139,
          0.048807,
          0.049091,
          0.048131,
          0.04778,
          0.048023,
          0.048669,
          0.048977,
          0.048287,
          0.047568,
          0.046182,
          0.045783,
          0.047119,
          0.047816,
          0.047298,
          0.048237,
          0.052153,
          0.055763,
          0.057432,
          0.058532,
          0.057459,
          0.055891,
          0.05512,
          0.052987,
          0.053849,
          0.054401,
          0.052748,
          0.053003,
          0.052407,
          0.052361,
          0.055023,
          0.057186,
          0.054418,
          0.052084,
          0.052019,
          0.052534,
          0.052649,
          0.050067,
          0.049168,
          0.050107,
          0.050262,
          0.04921,
          0.048496,
          0.048701,
          0.05063,
          0.052049,
          0.051348,
          0.049482,
          0.048977,
          0.049852,
          0.051673,
          0.052472,
          0.050932,
          0.052935,
          0.054611,
          0.051213,
          0.048388,
          0.047989,
          0.048962,
          0.050616,
          0.051067,
          0.051944,
          0.052856,
          0.052982,
          0.052357,
          0.053471,
          0.05541,
          0.051844,
          0.049163,
          0.04949,
          0.051827,
          0.05199,
          0.050355,
          0.052444,
          0.057542,
          0.061114,
          0.057814,
          0.054231,
          0.052278,
          0.052096,
          0.052223,
          0.052135,
          0.051379,
          0.052459,
          0.053977,
          0.054748,
          0.054727,
          0.051848,
          0.050602,
          0.050643,
          0.05002,
          0.050091,
          0.049568,
          0.048285,
          0.048972,
          0.050159,
          0.052673,
          0.052329,
          0.052728,
          0.053789,
          0.054473,
          0.054374,
          0.054594,
          0.054321,
          0.052363,
          0.053122,
          0.05365,
          0.054002,
          0.052604,
          0.051007,
          0.050518,
          0.05143,
          0.053081,
          0.052877,
          0.050977,
          0.048868,
          0.049565,
          0.050446,
          0.0505,
          0.050638,
          0.051168,
          0.0509,
          0.051111,
          0.051674,
          0.051432,
          0.049673,
          0.048414,
          0.049444,
          0.051884,
          0.052334,
          0.052359,
          0.052431,
          0.050918,
          0.049366,
          0.049345,
          0.050414,
          0.051682,
          0.053497,
          0.054141,
          0.054721,
          0.055292,
          0.053753,
          0.053196,
          0.050421,
          0.04955,
          0.049517,
          0.050069,
          0.051865,
          0.053701,
          0.05317,
          0.05318,
          0.054336,
          0.05229,
          0.048421,
          0.047026,
          0.046964,
          0.047716,
          0.049266,
          0.05077,
          0.051478,
          0.053083,
          0.053551,
          0.05446,
          0.054578,
          0.055282,
          0.055552,
          0.053534,
          0.052693,
          0.054504,
          0.054808,
          0.052795,
          0.053445,
          0.054701,
          0.052123,
          0.049498,
          0.050912,
          0.052545,
          0.051949,
          0.053398,
          0.054972,
          0.054921,
          0.053443,
          0.052357,
          0.054599,
          0.057938,
          0.058763,
          0.059965,
          0.060895,
          0.06064,
          0.058095,
          0.05665,
          0.057045,
          0.059059,
          0.05919,
          0.059266,
          0.058599,
          0.056303,
          0.05386,
          0.05549,
          0.059247,
          0.061799,
          0.060672,
          0.058834,
          0.057953,
          0.057987,
          0.058345,
          0.058083,
          0.057713,
          0.058318,
          0.057676,
          0.057409,
          0.05684,
          0.056367,
          0.055889,
          0.055889,
          0.056251,
          0.055943,
          0.055646,
          0.056754,
          0.057061,
          0.057094,
          0.058266,
          0.059195,
          0.057839,
          0.057363,
          0.056995,
          0.055548,
          0.05511,
          0.0552,
          0.056176,
          0.056571,
          0.05572,
          0.057046,
          0.05723,
          0.056856,
          0.055937,
          0.056169,
          0.05589,
          0.055317,
          0.054622,
          0.055491,
          0.057307,
          0.059263,
          0.062066,
          0.062785,
          0.061092,
          0.0611,
          0.05969,
          0.057537,
          0.056571,
          0.055819,
          0.057318,
          0.05871,
          0.057584,
          0.056596,
          0.055558,
          0.054766,
          0.054815,
          0.056569,
          0.059205,
          0.06114,
          0.059845,
          0.05969,
          0.059506,
          0.058339,
          0.059055,
          0.060864,
          0.06223,
          0.060717,
          0.06021,
          0.060701,
          0.061333,
          0.060178,
          0.06122,
          0.06412,
          0.066009,
          0.065264,
          0.066718,
          0.067498,
          0.064529,
          0.062991,
          0.0617,
          0.062147,
          0.061122,
          0.059946,
          0.060493,
          0.060008,
          0.061328,
          0.062158,
          0.05994,
          0.058804,
          0.058026,
          0.057973,
          0.058085,
          0.058078,
          0.058747,
          0.060818,
          0.06207,
          0.061121,
          0.060919,
          0.0603,
          0.059668,
          0.059814,
          0.059568,
          0.059569,
          0.060375,
          0.06118,
          0.061762,
          0.06241,
          0.06356,
          0.063256,
          0.063051,
          0.060547,
          0.061936,
          0.062738,
          0.062581,
          0.064357,
          0.065622,
          0.065793,
          0.066945,
          0.070123,
          0.06918,
          0.066972,
          0.065693,
          0.065566,
          0.06613,
          0.068161,
          0.070636,
          0.070599,
          0.069138,
          0.070062,
          0.069363,
          0.069587,
          0.070552,
          0.071033,
          0.069916,
          0.068867,
          0.067013,
          0.066243,
          0.066593,
          0.068983,
          0.068834,
          0.069154,
          0.070044,
          0.070236,
          0.068988,
          0.068303,
          0.068625,
          0.069453,
          0.068199,
          0.06774,
          0.068306,
          0.067642,
          0.068197,
          0.068881,
          0.069429,
          0.070065,
          0.070981,
          0.068991,
          0.068361,
          0.068664,
          0.07035,
          0.070348,
          0.070653,
          0.071679,
          0.071116,
          0.070295,
          0.071006,
          0.070879,
          0.069837,
          0.070025,
          0.072358,
          0.073253,
          0.073379,
          0.071247,
          0.07096,
          0.071584,
          0.069873,
          0.06933,
          0.069971,
          0.06927,
          0.068532,
          0.068664,
          0.069207,
          0.069734,
          0.069502,
          0.068662,
          0.068031,
          0.069012,
          0.068812,
          0.06916,
          0.069393,
          0.069207,
          0.068228,
          0.070349,
          0.072043,
          0.073164,
          0.075099,
          0.074607,
          0.072236,
          0.071147,
          0.070952,
          0.06846,
          0.068326,
          0.068821,
          0.068657,
          0.068222,
          0.067779,
          0.066325,
          0.066985,
          0.068126,
          0.06662,
          0.065371,
          0.066394,
          0.067395,
          0.066724,
          0.065646,
          0.064371,
          0.066217,
          0.066142,
          0.066714,
          0.066362,
          0.065977,
          0.065069,
          0.064868,
          0.065966,
          0.066413,
          0.065942,
          0.065636,
          0.064902,
          0.065391,
          0.065607,
          0.065022,
          0.06403,
          0.064704,
          0.065177,
          0.063665,
          0.063849,
          0.065184,
          0.066104,
          0.065838,
          0.067019,
          0.067343,
          0.068192,
          0.070532,
          0.069785,
          0.067963,
          0.067368,
          0.066279,
          0.065846,
          0.066399,
          0.065539,
          0.064648,
          0.062801,
          0.063103,
          0.062819,
          0.062528,
          0.063994,
          0.066841,
          0.067883,
          0.067763,
          0.066706,
          0.067054,
          0.066588,
          0.066005,
          0.064959,
          0.064354,
          0.063875,
          0.06244,
          0.061592,
          0.062127,
          0.061535,
          0.06233,
          0.062303,
          0.062071,
          0.061053,
          0.059446,
          0.059593,
          0.060349,
          0.06188,
          0.062626,
          0.061511,
          0.062049,
          0.060847,
          0.061144,
          0.062891,
          0.06205,
          0.061716,
          0.061845,
          0.061829,
          0.060469,
          0.060428,
          0.060358,
          0.060348,
          0.058785,
          0.057873,
          0.057019,
          0.057556,
          0.058009,
          0.057505,
          0.057589,
          0.057604,
          0.057859,
          0.058261,
          0.05818,
          0.0586,
          0.058141,
          0.059147,
          0.058719,
          0.057315,
          0.056833,
          0.056402,
          0.056978,
          0.056852,
          0.056947,
          0.056587,
          0.056557,
          0.056211,
          0.055757,
          0.055958,
          0.057202,
          0.058145,
          0.059276,
          0.058441,
          0.059862,
          0.060376,
          0.060329,
          0.060392,
          0.06075,
          0.062969,
          0.063391,
          0.062033,
          0.061477,
          0.060655,
          0.060203,
          0.059723,
          0.058643,
          0.057851,
          0.058737,
          0.058944,
          0.059177,
          0.058259,
          0.058596,
          0.058586,
          0.05912,
          0.05908,
          0.059278,
          0.059266,
          0.059458,
          0.059121,
          0.058339,
          0.057643,
          0.057274,
          0.056735,
          0.056692,
          0.055867,
          0.056169,
          0.055667,
          0.055316,
          0.054874,
          0.055649,
          0.056136,
          0.057113,
          0.058322,
          0.058311,
          0.058331,
          0.058187,
          0.058243,
          0.057973,
          0.05773,
          0.057681,
          0.056655,
          0.056129,
          0.056492,
          0.056466,
          0.056147,
          0.055155,
          0.055047,
          0.05536,
          0.05502,
          0.054384,
          0.054667,
          0.054553,
          0.054808,
          0.055658,
          0.056959,
          0.056387,
          0.055112,
          0.054116,
          0.053884,
          0.054231,
          0.053708,
          0.053654,
          0.053422,
          0.053378,
          0.053595,
          0.053635,
          0.053749,
          0.05317,
          0.053471,
          0.053609,
          0.053116,
          0.053215,
          0.053846,
          0.053584,
          0.05325,
          0.053675,
          0.054729,
          0.053874,
          0.053734,
          0.052616,
          0.052612,
          0.053103,
          0.053672,
          0.053293,
          0.052738,
          0.052453,
          0.052024,
          0.052066,
          0.051955,
          0.052061,
          0.051969,
          0.052229,
          0.051845,
          0.051912,
          0.051686,
          0.051414,
          0.051408,
          0.051099,
          0.051361,
          0.051426,
          0.050927,
          0.050997,
          0.05135,
          0.051667,
          0.052299,
          0.051934,
          0.05128,
          0.051121,
          0.051218,
          0.050974,
          0.050827,
          0.051148,
          0.051239,
          0.050981,
          0.051293,
          0.051675,
          0.051822,
          0.051896,
          0.052009,
          0.051764,
          0.0519,
          0.052211,
          0.052791,
          0.054164,
          0.054518,
          0.054224,
          0.054288,
          0.054191,
          0.054162,
          0.055032,
          0.055015,
          0.055201,
          0.055836,
          0.055843,
          0.055877,
          0.055562,
          0.054994,
          0.054423,
          0.054518,
          0.054891,
          0.054785,
          0.05455,
          0.054888,
          0.054846,
          0.055244,
          0.055636,
          0.055568,
          0.055677,
          0.056133,
          0.056381,
          0.056297,
          0.057101,
          0.05711,
          0.056779,
          0.056736,
          0.056733,
          0.055713,
          0.054659,
          0.05454,
          0.05419,
          0.053995,
          0.05464,
          0.054681,
          0.054837,
          0.054673,
          0.055191,
          0.055094,
          0.055564,
          0.055828,
          0.055771,
          0.055746,
          0.055899,
          0.056035,
          0.055714,
          0.055844,
          0.056084,
          0.056331,
          0.056235,
          0.056646,
          0.056656,
          0.057144,
          0.057154,
          0.057672,
          0.057975,
          0.058429,
          0.058906,
          0.058695,
          0.058835,
          0.058728,
          0.059179,
          0.058426,
          0.058623,
          0.05881,
          0.059077,
          0.059361,
          0.060213,
          0.059648,
          0.060274,
          0.060763,
          0.060245,
          0.060142,
          0.06067,
          0.061178,
          0.061547,
          0.061741,
          0.061841,
          0.062486,
          0.062874,
          0.063244,
          0.062807,
          0.062872,
          0.063332,
          0.063196,
          0.063271,
          0.064323,
          0.064307,
          0.064775,
          0.065435,
          0.065662,
          0.064908,
          0.065764,
          0.065571,
          0.066238,
          0.066126,
          0.06696,
          0.066923,
          0.067329,
          0.067342,
          0.06832,
          0.068827,
          0.069149,
          0.068584,
          0.068958,
          0.069569,
          0.068895,
          0.069653,
          0.069805,
          0.069789,
          0.070584,
          0.069646,
          0.069871,
          0.070229,
          0.071165,
          0.071762,
          0.071777,
          0.071977,
          0.072022,
          0.073034,
          0.072759,
          0.07252,
          0.073101,
          0.073956,
          0.07455,
          0.0753,
          0.075482,
          0.074825,
          0.075879,
          0.075347,
          0.075532,
          0.075975,
          0.076701,
          0.076547,
          0.077019,
          0.078271,
          0.077917,
          0.079312,
          0.078934,
          0.08051,
          0.081353,
          0.080947,
          0.079945,
          0.080415,
          0.082113,
          0.08185,
          0.081986,
          0.081581,
          0.081977,
          0.081689,
          0.082574,
          0.083026,
          0.083292,
          0.083919,
          0.085422,
          0.085178,
          0.084584,
          0.085461,
          0.085436,
          0.085893,
          0.086265,
          0.086831,
          0.087915,
          0.087578,
          0.08948,
          0.088846,
          0.089321,
          0.089386,
          0.090257,
          0.090696,
          0.088753,
          0.091022,
          0.09086,
          0.092045,
          0.09194,
          0.092429,
          0.094026,
          0.094068,
          0.093452,
          0.09425,
          0.095796,
          0.095799,
          0.095549,
          0.095461,
          0.097531,
          0.09756,
          0.097465,
          0.098583,
          0.098593,
          0.098915,
          0.09866,
          0.098705,
          0.099235,
          0.10017,
          0.10051,
          0.10106,
          0.10317,
          0.10293,
          0.10248,
          0.10375,
          0.10477,
          0.10489,
          0.10442,
          0.10588,
          0.10558,
          0.10535,
          0.1074,
          0.107,
          0.10731,
          0.11092,
          0.11173,
          0.11049,
          0.11148,
          0.11153,
          0.11223,
          0.11226,
          0.11269,
          0.11252,
          0.11412,
          0.11386,
          0.11274,
          0.11645,
          0.11639,
          0.11674,
          0.11967,
          0.12024,
          0.11968,
          0.1193,
          0.12319,
          0.12368,
          0.12415,
          0.12281,
          0.12332,
          0.12663,
          0.12704,
          0.12721,
          0.12953,
          0.12998,
          0.13198,
          0.13301,
          0.13351,
          0.13117,
          0.13493,
          0.13543,
          0.13929,
          0.13853,
          0.1384,
          0.14066,
          0.14321,
          0.1423,
          0.14392,
          0.14851,
          0.14561,
          0.1474,
          0.15377,
          0.15088,
          0.15139,
          0.15473,
          0.15642,
          0.15947,
          0.15829,
          0.15535,
          0.15809,
          0.16136,
          0.16434,
          0.16769,
          0.16999,
          0.17065,
          0.17069,
          0.17468,
          0.17686,
          0.17706,
          0.17541,
          0.1782,
          0.18449,
          0.18838,
          0.18692,
          0.19135,
          0.19288,
          0.19535,
          0.20646,
          0.20744,
          0.20499,
          0.20401,
          0.20993,
          0.21247,
          0.22336,
          0.2213,
          0.22357,
          0.22633,
          0.22949,
          0.22699,
          0.24277,
          0.24632,
          0.23837,
          0.24883,
          0.25334,
          0.2613,
          0.26674,
          0.27136,
          0.26872,
          0.28216,
          0.27692,
          0.29369,
          0.31193,
          0.301,
          0.29286,
          0.31971,
          0.3113,
          0.32176,
          0.34136,
          0.36069,
          0.34526,
          0.37944,
          0.38727,
          0.38331,
          0.38935,
          0.41398,
          0.43772,
          0.39875,
          0.46718,
          0.4582,
          0.47276
        ]
      ]
    }
  }
}