{
  "entry": "10132",
  "last_updated": "2013-09-27",
  "number_of_revisions": "4",
  "histories": [
    {
      "x4_code": "(19720608C)",
      "free_txt": []
    },
    {
      "x4_code": "(19750905A)",
      "free_txt": [
        " Bib changes."
      ]
    },
    {
      "x4_code": "(19820527A)",
      "free_txt": [
        " Converted to reaction formalism"
      ]
    },
    {
      "x4_code": "(20000321A)",
      "free_txt": [
        " converted to new date format, lower case."
      ]
    },
    {
      "x4_code": "(20130503A)",
      "free_txt": [
        " BP: corrections according last EXFOR rules",
        "and Dict. Digitized Fig. 2-5 and updated subentries",
        "4-6 and reaction strings, updated detectors and error",
        "analysis."
      ]
    }
  ],
  "bib_record": {
    "title": "Neutron scattering cross sections of 233U, 235U and 239Pu.",
    "authors": [
      {
        "name": "F.B.Simpson"
      },
      {
        "name": "L.G.Miller"
      },
      {
        "name": "M.S.Moore"
      },
      {
        "name": "R.W.Hockenbury"
      },
      {
        "name": "T.J.King"
      }
    ],
    "institutes": [
      {
        "x4_code": "(1USARPI)",
        "free_txt": ""
      },
      {
        "x4_code": "(1USAMTR)",
        "free_txt": ""
      }
    ],
    "references": [
      {
        "x4_code": "(J,NP/A,164,34,1971)",
        "free_txt": [
          "#doi:10.1016/0375-9474(71)90841-4"
        ],
        "publication_year": "1971",
        "pointer": "0",
        "doi": "10.1016/0375-9474(71)90841-4"
      }
    ],
    "facilities": [
      {
        "x4_code": "(LINAC,1USARPI)",
        "free_txt": [],
        "pointer": "0",
        "facility_type": "(LINAC)",
        "institute": "(1USARPI)"
      }
    ]
  },
  "reactions": {
    "002": {
      "0": {
        "x4_code": "(94-PU-239(N,0),,J)",
        "children": [
          {
            "code": [
              "94-PU-239",
              [
                "N,0"
              ],
              ",,J"
            ],
            "type": null,
            "target": "94-PU-239",
            "process": "N,0",
            "sf49": ",,J",
            "sf4": null,
            "sf5": null,
            "sf6": "J",
            "sf7": null,
            "sf8": null,
            "sf9": null
          }
        ],
        "type": null,
        "free_text": ""
      }
    },
    "003": {
      "0": {
        "x4_code": "(92-U-235(N,0),,J)",
        "children": [
          {
            "code": [
              "92-U-235",
              [
                "N,0"
              ],
              ",,J"
            ],
            "type": null,
            "target": "92-U-235",
            "process": "N,0",
            "sf49": ",,J",
            "sf4": null,
            "sf5": null,
            "sf6": "J",
            "sf7": null,
            "sf8": null,
            "sf9": null
          }
        ],
        "type": null,
        "free_text": ""
      }
    },
    "004": {
      "0": {
        "x4_code": "(92-U-233(N,EL)92-U-233,,SIG,,RAW)",
        "children": [
          {
            "code": [
              "92-U-233",
              [
                "N,EL"
              ],
              "92-U-233,,SIG,,RAW"
            ],
            "type": null,
            "target": "92-U-233",
            "process": "N,EL",
            "sf49": "92-U-233,,SIG,,RAW",
            "sf4": "92-U-233",
            "sf5": null,
            "sf6": "SIG",
            "sf7": null,
            "sf8": "RAW",
            "sf9": null
          }
        ],
        "type": null,
        "free_text": ""
      }
    },
    "005": {
      "0": {
        "x4_code": "(92-U-235(N,EL)92-U-235,,SIG,,RAW)",
        "children": [
          {
            "code": [
              "92-U-235",
              [
                "N,EL"
              ],
              "92-U-235,,SIG,,RAW"
            ],
            "type": null,
            "target": "92-U-235",
            "process": "N,EL",
            "sf49": "92-U-235,,SIG,,RAW",
            "sf4": "92-U-235",
            "sf5": null,
            "sf6": "SIG",
            "sf7": null,
            "sf8": "RAW",
            "sf9": null
          }
        ],
        "type": null,
        "free_text": ""
      }
    },
    "006": {
      "0": {
        "x4_code": "(94-PU-239(N,EL)94-PU-239,,SIG,,RAW)",
        "children": [
          {
            "code": [
              "94-PU-239",
              [
                "N,EL"
              ],
              "94-PU-239,,SIG,,RAW"
            ],
            "type": null,
            "target": "94-PU-239",
            "process": "N,EL",
            "sf49": "94-PU-239,,SIG,,RAW",
            "sf4": "94-PU-239",
            "sf5": null,
            "sf6": "SIG",
            "sf7": null,
            "sf8": "RAW",
            "sf9": null
          }
        ],
        "type": null,
        "free_text": ""
      }
    }
  },
  "data_tables": {
    "001": {
      "common": null
    },
    "002": {
      "common": null,
      "data": {
        "heads": [
          "EN-RES",
          "DATA",
          "FLAG"
        ],
        "units": [
          "EV",
          "NO-DIM",
          "NO-DIM"
        ],
        "data": [
          [
            7.82,
            10.93,
            11.89,
            14.31,
            14.69,
            17.66,
            22.28,
            26.29,
            32.38,
            41.42,
            44.48,
            47.6,
            50.08,
            52.6,
            55.63,
            57.44,
            59.22,
            65.71,
            74.95,
            85.7,
            90.8,
            106.8,
            119.0
          ],
          [
            1.0,
            1.0,
            1.0,
            1.0,
            1.0,
            1.0,
            1.0,
            1.0,
            0.0,
            1.0,
            1.0,
            1.0,
            1.0,
            1.0,
            1.0,
            0.0,
            1.0,
            1.0,
            1.0,
            1.0,
            1.0,
            0.0,
            1.0
          ],
          [
            null,
            null,
            null,
            1.0,
            null,
            null,
            null,
            null,
            1.0,
            null,
            null,
            1.0,
            null,
            null,
            1.0,
            null,
            null,
            null,
            null,
            null,
            null,
            1.0,
            null
          ]
        ]
      }
    },
    "003": {
      "common": null,
      "data": {
        "heads": [
          "EN-RES",
          "DATA",
          "FLAG"
        ],
        "units": [
          "EV",
          "NO-DIM",
          "NO-DIM"
        ],
        "data": [
          [
            8.79,
            11.67,
            12.39,
            19.29
          ],
          [
            3.0,
            4.0,
            4.0,
            4.0
          ],
          [
            null,
            null,
            1.0,
            null
          ]
        ]
      }
    },
    "004": {
      "common": null,
      "data": {
        "heads": [
          "EN",
          "DATA"
        ],
        "units": [
          "EV",
          "B"
        ],
        "data": [
          [
            0.6054,
            0.7505,
            0.8543,
            0.9373,
            1.062,
            1.124,
            1.248,
            1.352,
            1.456,
            1.56,
            1.664,
            1.745,
            1.849,
            2.015,
            2.139,
            2.285,
            2.512,
            2.699,
            2.948,
            3.093,
            3.217,
            3.342,
            3.529,
            3.715,
            3.922,
            4.026,
            4.109,
            4.275,
            4.897,
            5.021,
            5.061,
            5.102,
            5.266,
            5.351,
            5.373,
            5.436,
            5.498,
            5.623,
            5.892,
            6.079,
            6.142,
            6.225,
            6.411,
            6.597,
            6.679,
            6.72,
            6.78,
            6.824,
            6.842,
            6.883,
            7.009,
            7.011,
            7.094,
            7.218,
            7.281,
            7.364,
            7.385,
            7.427,
            7.571,
            7.613,
            7.841,
            7.882,
            8.048,
            8.235,
            8.339,
            8.38,
            8.526,
            8.588,
            8.692,
            8.795,
            8.941,
            9.044,
            9.127,
            9.21,
            9.335,
            9.397,
            9.604,
            9.667,
            9.688,
            9.812,
            9.978,
            9.998,
            10.06,
            10.14,
            10.27,
            10.37,
            10.43,
            10.49,
            10.6,
            10.64,
            10.7,
            10.76,
            10.87,
            10.95,
            11.01,
            11.08,
            11.16,
            11.35,
            11.41,
            11.51,
            11.59,
            11.74,
            11.82,
            11.86,
            11.91,
            11.97,
            12.07,
            12.13,
            12.22,
            12.34,
            12.47,
            12.63,
            12.75,
            12.88,
            12.88,
            12.96,
            13.25,
            13.31,
            13.36,
            13.42,
            13.56,
            13.63,
            13.79,
            13.83,
            13.94,
            13.96,
            14.1,
            14.1,
            14.17,
            14.29,
            14.37,
            14.46,
            14.6,
            14.68,
            14.73,
            14.87,
            14.87,
            14.89,
            14.99,
            15.06,
            15.14,
            15.22,
            15.24,
            15.33,
            15.43,
            15.49,
            15.58,
            15.68,
            15.74,
            15.78,
            15.91,
            15.99,
            16.05,
            16.15,
            16.22,
            16.3,
            16.36,
            16.49,
            16.57,
            16.69,
            16.84,
            17.03,
            17.03,
            17.21,
            17.23,
            17.42,
            17.59,
            17.63,
            17.75,
            17.79,
            17.92,
            18.02,
            18.11,
            18.15,
            18.31,
            18.35,
            18.46,
            18.52,
            18.71,
            18.75,
            18.79,
            18.91,
            19.05,
            19.13,
            19.27,
            19.4,
            19.42,
            19.52,
            19.58,
            19.69,
            19.73,
            19.81,
            19.92,
            19.96,
            20.08,
            20.17,
            20.21,
            20.39,
            20.46,
            20.58,
            20.62,
            20.68,
            20.74,
            20.86,
            20.92,
            21.05,
            21.07,
            21.18,
            21.26,
            21.33,
            21.39,
            21.59,
            21.64,
            21.76,
            21.84,
            21.89,
            22.03,
            22.07,
            22.15,
            22.25,
            22.32,
            22.42,
            22.52,
            22.55,
            22.67,
            22.84,
            22.88,
            22.96,
            23.06,
            23.09,
            23.27,
            23.37,
            23.38,
            23.64,
            23.69,
            23.79,
            23.96,
            23.96,
            24.1,
            24.21,
            24.25,
            24.39,
            24.58,
            24.83,
            24.85,
            24.99,
            25.14,
            25.18,
            25.34,
            25.43,
            25.47,
            25.61,
            25.8,
            25.93,
            26.09,
            26.3,
            26.42,
            26.42,
            26.61,
            26.78,
            26.8,
            26.94,
            27.08,
            27.13,
            27.31,
            27.46,
            27.48,
            27.63,
            27.8,
            27.81,
            28.0,
            28.2,
            28.39,
            28.54,
            28.58,
            28.72,
            28.89,
            29.1,
            29.28,
            29.3,
            29.7,
            29.89,
            30.09,
            30.11,
            30.27,
            30.5,
            30.67,
            30.92,
            30.96,
            31.13,
            31.29,
            31.33,
            31.56,
            31.79,
            32.02,
            32.2,
            32.45,
            32.66,
            32.68,
            32.93,
            33.16,
            33.36,
            33.61,
            33.84,
            34.03,
            34.11,
            34.32,
            34.55,
            34.59,
            34.77,
            35.04,
            35.08,
            35.31,
            35.52,
            35.83,
            36.08,
            36.09,
            36.32,
            36.42,
            36.58,
            36.62,
            36.72,
            36.82,
            36.97,
            37.1,
            37.19,
            37.25,
            37.25,
            37.4,
            37.55,
            37.63,
            37.76,
            37.82,
            37.94,
            38.22,
            38.48,
            38.84,
            39.15,
            39.41,
            39.72,
            40.08,
            40.38,
            40.38,
            40.69,
            41.0,
            41.22,
            41.66,
            41.97,
            42.28,
            42.63,
            42.94,
            43.34,
            43.69,
            44.0,
            44.35,
            44.62,
            45.1,
            45.46,
            45.86,
            46.25,
            46.65,
            47.06,
            47.4,
            47.8,
            48.25,
            48.65,
            49.05,
            49.48,
            49.92,
            50.27,
            50.76,
            51.2,
            51.68,
            52.08,
            52.53,
            53.02,
            53.5,
            54.03,
            54.51,
            54.99,
            55.48,
            56.02,
            56.45,
            57.03,
            57.59,
            58.13,
            58.62,
            59.19,
            59.86,
            60.4,
            60.92,
            61.49,
            62.16,
            62.73,
            63.35,
            63.93,
            64.58,
            65.16,
            65.83,
            66.37,
            66.64,
            67.03,
            67.4,
            68.11,
            68.86,
            69.62,
            70.32,
            70.98,
            71.74,
            72.44,
            73.24,
            74.03,
            74.74,
            75.67,
            76.1,
            76.55,
            76.99,
            77.34,
            77.74,
            78.18,
            78.57,
            79.02,
            79.37,
            79.9,
            80.34,
            80.74,
            81.27,
            81.67,
            82.16,
            82.6,
            83.03,
            83.56,
            83.96,
            84.5,
            84.93,
            85.4,
            85.89,
            86.38,
            86.87,
            87.31,
            87.85,
            88.39,
            88.93,
            89.41,
            89.96,
            90.47,
            90.91,
            91.54,
            92.13,
            92.61,
            93.14,
            93.76,
            94.24,
            94.82,
            95.39,
            95.96,
            96.59,
            97.11,
            97.78,
            98.27,
            98.88,
            99.49,
            100.1,
            100.7,
            101.4,
            101.9,
            102.6,
            103.3,
            103.9,
            104.6,
            105.2,
            105.8,
            106.5,
            107.2,
            107.9,
            108.6,
            109.3,
            109.9,
            110.6,
            111.2,
            111.8,
            112.6,
            113.3,
            114.0,
            114.3,
            115.2,
            116.0,
            116.8,
            117.5,
            118.5,
            119.2,
            119.9,
            120.6,
            122.1,
            123.8,
            124.7,
            125.7,
            126.7,
            127.6,
            128.4,
            129.3,
            130.1,
            130.8,
            132.0,
            132.8,
            133.8,
            134.7,
            135.6,
            136.6,
            137.5,
            138.6,
            139.6,
            140.6,
            141.7,
            142.5,
            143.7,
            144.8,
            145.8,
            146.9,
            148.2,
            149.2,
            150.5,
            151.5,
            152.6,
            153.7,
            154.8,
            155.9,
            157.0,
            158.4,
            159.8,
            161.0,
            162.3,
            163.7,
            164.9,
            166.2,
            167.4,
            168.8,
            170.0,
            171.5,
            172.9,
            173.9,
            174.8,
            176.1,
            177.5,
            178.9,
            180.3,
            182.4,
            182.7,
            184.5,
            185.9,
            187.6,
            189.2,
            190.7,
            192.3
          ],
          [
            11.01,
            11.18,
            11.01,
            10.84,
            11.09,
            10.42,
            10.42,
            10.16,
            9.401,
            8.131,
            8.301,
            13.47,
            12.96,
            11.78,
            12.2,
            10.25,
            15.0,
            13.9,
            12.97,
            12.12,
            12.63,
            12.8,
            12.46,
            14.24,
            13.06,
            13.23,
            13.06,
            12.38,
            12.22,
            12.56,
            16.46,
            18.32,
            23.83,
            19.42,
            15.61,
            13.83,
            12.22,
            11.71,
            12.73,
            12.48,
            11.55,
            10.62,
            10.87,
            14.35,
            15.28,
            17.06,
            22.31,
            15.7,
            23.5,
            25.36,
            20.96,
            16.13,
            15.45,
            17.15,
            15.37,
            12.91,
            13.42,
            12.49,
            14.1,
            12.41,
            13.42,
            13.93,
            13.68,
            14.02,
            13.51,
            13.51,
            12.07,
            11.65,
            11.82,
            12.41,
            11.99,
            12.58,
            13.09,
            12.58,
            11.99,
            10.64,
            12.33,
            10.72,
            10.13,
            10.3,
            10.22,
            11.49,
            12.0,
            12.34,
            16.83,
            15.56,
            20.56,
            21.15,
            20.3,
            18.1,
            16.41,
            20.13,
            15.73,
            14.54,
            13.36,
            12.85,
            12.34,
            14.04,
            12.43,
            12.94,
            12.18,
            13.02,
            12.01,
            12.86,
            11.42,
            13.53,
            11.5,
            12.77,
            13.54,
            12.27,
            12.77,
            16.08,
            15.74,
            17.69,
            16.93,
            19.05,
            13.54,
            14.56,
            15.49,
            14.81,
            13.54,
            12.78,
            13.04,
            12.27,
            13.38,
            12.78,
            13.97,
            12.61,
            11.94,
            11.94,
            12.28,
            13.38,
            12.02,
            13.55,
            11.43,
            13.98,
            11.94,
            14.06,
            12.96,
            15.42,
            14.49,
            14.66,
            16.86,
            14.99,
            14.15,
            13.39,
            13.05,
            12.79,
            13.73,
            15.51,
            13.73,
            14.32,
            13.39,
            17.29,
            13.39,
            14.66,
            14.07,
            15.85,
            13.22,
            15.17,
            13.39,
            14.16,
            13.06,
            13.48,
            12.13,
            12.47,
            12.38,
            13.91,
            11.96,
            14.08,
            11.62,
            13.99,
            11.54,
            12.72,
            12.56,
            12.13,
            13.49,
            12.9,
            15.02,
            12.9,
            14.25,
            13.66,
            15.95,
            14.52,
            14.27,
            15.45,
            14.52,
            13.01,
            15.37,
            13.18,
            14.7,
            13.09,
            11.41,
            14.03,
            12.76,
            13.69,
            13.02,
            13.86,
            11.42,
            12.77,
            14.88,
            16.99,
            19.36,
            19.61,
            22.06,
            20.88,
            17.93,
            14.38,
            13.46,
            14.56,
            13.21,
            16.42,
            14.31,
            18.28,
            16.84,
            14.31,
            14.57,
            18.03,
            20.82,
            23.69,
            17.27,
            19.3,
            21.16,
            17.03,
            17.53,
            16.78,
            18.63,
            16.53,
            15.77,
            16.28,
            16.28,
            16.87,
            15.01,
            16.54,
            15.61,
            11.82,
            14.94,
            13.59,
            15.37,
            14.02,
            14.44,
            12.67,
            14.87,
            14.37,
            15.38,
            17.57,
            14.46,
            18.34,
            15.39,
            14.54,
            12.18,
            15.39,
            15.23,
            14.55,
            15.57,
            14.81,
            15.07,
            14.14,
            14.23,
            11.7,
            14.06,
            13.98,
            16.68,
            14.24,
            16.69,
            14.75,
            13.82,
            13.06,
            10.11,
            12.06,
            10.79,
            14.51,
            13.75,
            14.35,
            15.28,
            14.94,
            15.45,
            15.03,
            13.35,
            14.7,
            12.93,
            12.35,
            15.47,
            13.78,
            16.49,
            15.23,
            15.9,
            14.47,
            15.66,
            14.48,
            15.32,
            16.17,
            15.58,
            13.81,
            15.34,
            13.57,
            12.98,
            14.84,
            13.75,
            14.76,
            13.5,
            16.96,
            15.11,
            15.37,
            16.05,
            13.94,
            13.94,
            12.09,
            13.1,
            14.2,
            15.31,
            14.29,
            14.72,
            15.48,
            15.15,
            17.52,
            19.12,
            24.02,
            25.96,
            27.99,
            29.26,
            31.29,
            35.08,
            35.59,
            27.33,
            24.29,
            21.17,
            21.17,
            19.4,
            15.94,
            16.36,
            15.78,
            15.1,
            14.6,
            15.04,
            14.06,
            15.21,
            15.65,
            14.85,
            13.43,
            15.55,
            14.3,
            14.3,
            13.95,
            15.18,
            14.74,
            15.26,
            14.55,
            14.11,
            14.28,
            13.03,
            15.51,
            14.0,
            15.06,
            12.4,
            12.93,
            13.28,
            13.89,
            13.8,
            14.33,
            13.17,
            16.36,
            14.22,
            13.78,
            15.72,
            17.22,
            17.66,
            14.29,
            13.58,
            14.1,
            13.66,
            13.3,
            12.94,
            13.99,
            15.23,
            15.93,
            14.69,
            16.54,
            12.9,
            11.92,
            14.05,
            16.34,
            13.59,
            13.05,
            10.3,
            12.86,
            14.45,
            13.21,
            14.08,
            17.45,
            14.34,
            13.53,
            15.21,
            16.18,
            16.88,
            16.87,
            14.21,
            15.89,
            18.27,
            21.46,
            24.29,
            19.76,
            12.05,
            12.48,
            13.36,
            13.71,
            12.9,
            13.43,
            13.77,
            13.32,
            14.91,
            11.89,
            14.36,
            16.21,
            12.19,
            14.33,
            13.97,
            15.83,
            16.1,
            15.47,
            13.51,
            14.57,
            15.01,
            12.61,
            15.09,
            14.47,
            16.07,
            16.69,
            18.02,
            16.68,
            15.78,
            16.05,
            14.8,
            18.62,
            15.59,
            10.24,
            9.704,
            10.77,
            13.35,
            16.1,
            19.57,
            25.88,
            29.97,
            26.76,
            16.79,
            8.684,
            6.9,
            10.99,
            17.57,
            17.57,
            18.01,
            17.38,
            16.48,
            18.17,
            18.08,
            17.45,
            18.69,
            15.21,
            19.03,
            20.63,
            18.94,
            17.42,
            14.47,
            14.74,
            15.44,
            16.5,
            20.95,
            21.57,
            22.1,
            18.17,
            17.54,
            15.76,
            14.42,
            14.59,
            13.96,
            14.84,
            16.44,
            15.28,
            14.74,
            11.44,
            13.21,
            18.01,
            15.51,
            15.86,
            15.31,
            15.84,
            14.67,
            16.63,
            19.94,
            21.81,
            25.48,
            22.69,
            13.37,
            10.49,
            15.94,
            16.02,
            14.94,
            14.57,
            16.54,
            16.62,
            13.56,
            16.15,
            15.7,
            15.24,
            19.8,
            19.08,
            15.31,
            15.12,
            15.02,
            15.73,
            16.71,
            16.43,
            16.96,
            16.5,
            15.51,
            14.78,
            16.56,
            15.3,
            15.56,
            18.14,
            16.97,
            14.36,
            14.71,
            12.82,
            12.63,
            16.02,
            16.73,
            16.27,
            15.1,
            13.56,
            11.94,
            16.05,
            18.18,
            16.02,
            14.31,
            11.16,
            12.05,
            13.29,
            14.62,
            13.98,
            15.85,
            17.55,
            16.28,
            15.46,
            16.17,
            15.26,
            15.42,
            15.42,
            16.29,
            18.88,
            19.31,
            21.18,
            23.22,
            18.91
          ]
        ]
      }
    },
    "005": {
      "common": null,
      "data": {
        "heads": [
          "EN",
          "DATA"
        ],
        "units": [
          "EV",
          "B"
        ],
        "data": [
          [
            0.9197,
            1.047,
            1.138,
            1.138,
            1.193,
            1.302,
            1.375,
            1.429,
            1.52,
            1.593,
            1.648,
            1.702,
            1.757,
            1.829,
            1.92,
            2.011,
            2.157,
            2.23,
            2.339,
            2.411,
            2.557,
            2.666,
            2.739,
            2.83,
            2.921,
            3.03,
            3.157,
            3.212,
            3.339,
            3.394,
            3.521,
            3.667,
            3.721,
            3.83,
            3.903,
            3.94,
            3.976,
            4.067,
            4.158,
            4.194,
            4.213,
            4.267,
            4.322,
            4.376,
            4.394,
            4.449,
            4.503,
            4.522,
            4.576,
            4.63,
            4.631,
            4.704,
            4.777,
            4.831,
            4.849,
            4.922,
            4.941,
            5.032,
            5.033,
            5.07,
            5.089,
            5.108,
            5.126,
            5.162,
            5.215,
            5.232,
            5.268,
            5.268,
            5.341,
            5.341,
            5.395,
            5.486,
            5.559,
            5.577,
            5.577,
            5.686,
            5.704,
            5.795,
            5.832,
            5.849,
            5.958,
            5.994,
            6.013,
            6.085,
            6.085,
            6.141,
            6.213,
            6.232,
            6.269,
            6.323,
            6.361,
            6.397,
            6.432,
            6.506,
            6.507,
            6.562,
            6.599,
            6.669,
            6.671,
            6.797,
            6.832,
            6.832,
            6.851,
            6.905,
            6.996,
            7.106,
            7.142,
            7.196,
            7.287,
            7.396,
            7.505,
            7.596,
            7.687,
            7.705,
            7.76,
            7.778,
            7.887,
            7.905,
            8.014,
            8.105,
            8.178,
            8.323,
            8.377,
            8.469,
            8.505,
            8.542,
            8.596,
            8.725,
            8.781,
            8.854,
            8.87,
            8.962,
            9.053,
            9.071,
            9.216,
            9.361,
            9.543,
            9.671,
            9.779,
            9.907,
            9.961,
            10.09,
            10.22,
            10.42,
            10.56,
            10.73,
            10.83,
            10.89,
            10.96,
            10.98,
            11.02,
            11.09,
            11.18,
            11.27,
            11.31,
            11.4,
            11.44,
            11.47,
            11.53,
            11.56,
            11.6,
            11.69,
            11.73,
            11.76,
            11.8,
            11.87,
            11.96,
            12.02,
            12.05,
            12.09,
            12.18,
            12.22,
            12.26,
            12.31,
            12.35,
            12.44,
            12.47,
            12.55,
            12.62,
            12.67,
            12.71,
            12.76,
            12.82,
            12.84,
            12.87,
            13.0,
            13.07,
            13.2,
            13.31,
            13.45,
            13.56,
            13.71,
            13.78,
            13.93,
            14.07,
            14.18,
            14.35,
            14.46,
            14.6,
            14.75,
            14.87,
            15.04,
            15.18,
            15.29,
            15.46,
            15.6,
            15.8,
            15.93,
            16.11,
            16.26,
            16.4,
            16.55,
            16.73,
            16.89,
            17.09,
            17.22,
            17.42,
            17.6,
            17.82,
            18.04,
            18.18,
            18.35,
            18.56,
            19.06,
            19.26,
            19.46,
            19.64,
            19.91,
            20.11,
            20.33,
            20.57,
            20.81,
            21.03,
            21.19,
            21.3,
            21.41,
            21.53,
            21.77,
            22.55,
            22.84,
            23.1,
            23.33,
            23.61,
            23.88,
            24.24,
            24.53,
            24.81,
            25.12,
            25.46,
            25.77,
            26.08,
            26.43,
            26.75,
            26.99,
            27.46,
            27.81,
            28.12,
            28.55,
            28.92,
            29.28,
            29.68,
            30.09,
            30.45,
            30.96,
            31.28,
            31.68,
            32.26,
            32.58,
            32.73,
            33.12,
            33.23,
            33.48,
            33.99,
            34.5,
            34.97,
            35.48,
            36.13,
            37.11,
            37.39,
            37.71,
            38.25,
            38.87,
            39.55,
            40.06,
            40.63,
            41.18,
            41.93,
            42.62,
            43.31,
            44.03,
            44.75,
            45.6,
            46.29,
            47.09,
            47.85,
            48.65,
            49.56,
            50.29,
            51.27,
            52.18,
            53.16,
            54.11,
            55.05,
            56.06,
            57.12,
            58.25,
            59.3,
            60.61,
            61.56,
            62.8,
            64.03,
            66.57,
            67.89,
            68.91,
            70.83,
            72.32,
            73.81,
            75.45,
            76.98,
            78.76,
            80.47,
            82.29,
            84.18,
            86.07,
            88.07,
            90.17,
            92.25,
            94.42,
            96.78,
            99.04,
            101.6,
            104.0,
            106.6,
            109.5,
            112.2,
            115.3,
            118.5,
            121.5,
            125.1,
            128.5,
            132.0,
            136.0,
            139.9,
            144.1,
            148.2,
            152.8,
            157.6,
            162.4
          ],
          [
            12.13,
            12.85,
            12.33,
            13.61,
            13.06,
            12.95,
            13.27,
            12.95,
            12.63,
            11.92,
            12.73,
            13.05,
            12.52,
            12.02,
            12.12,
            12.42,
            12.94,
            12.62,
            12.73,
            12.11,
            12.01,
            12.21,
            11.62,
            12.21,
            11.62,
            11.81,
            11.91,
            11.33,
            10.96,
            12.61,
            12.4,
            12.5,
            11.33,
            11.51,
            11.14,
            11.8,
            12.3,
            12.2,
            11.9,
            11.05,
            13.35,
            10.6,
            11.8,
            11.23,
            10.86,
            11.7,
            10.95,
            11.6,
            10.09,
            10.68,
            11.41,
            12.09,
            12.91,
            11.41,
            12.19,
            12.91,
            13.79,
            13.56,
            17.08,
            22.05,
            28.23,
            30.66,
            34.12,
            25.57,
            21.16,
            15.86,
            12.7,
            14.48,
            12.18,
            13.45,
            13.01,
            11.88,
            13.12,
            11.4,
            12.38,
            11.31,
            10.68,
            10.08,
            11.78,
            10.85,
            10.33,
            8.758,
            9.588,
            8.685,
            9.431,
            10.76,
            9.908,
            11.4,
            14.12,
            13.55,
            16.24,
            14.83,
            11.87,
            14.59,
            18.22,
            22.39,
            27.28,
            14.59,
            22.39,
            14.59,
            11.21,
            12.17,
            13.32,
            11.68,
            12.47,
            13.77,
            12.99,
            12.26,
            11.39,
            11.96,
            12.16,
            11.38,
            12.16,
            10.92,
            11.86,
            10.14,
            9.653,
            10.14,
            9.573,
            9.572,
            9.571,
            9.57,
            8.319,
            9.335,
            10.39,
            11.66,
            8.739,
            14.8,
            17.75,
            21.1,
            13.75,
            14.44,
            15.42,
            13.74,
            13.74,
            12.97,
            12.86,
            13.4,
            11.0,
            11.36,
            11.84,
            12.44,
            12.03,
            11.74,
            11.26,
            10.63,
            11.73,
            10.63,
            12.23,
            8.722,
            10.03,
            9.163,
            9.548,
            8.299,
            9.948,
            8.647,
            13.27,
            10.54,
            9.312,
            13.16,
            16.99,
            14.89,
            15.9,
            12.73,
            11.92,
            11.53,
            11.07,
            10.19,
            11.72,
            12.62,
            11.53,
            17.41,
            25.64,
            22.28,
            23.22,
            24.4,
            16.29,
            17.55,
            18.89,
            15.5,
            13.82,
            10.44,
            20.18,
            13.7,
            11.24,
            13.59,
            13.04,
            13.36,
            10.35,
            13.36,
            11.61,
            12.5,
            10.96,
            11.9,
            12.92,
            13.46,
            13.57,
            15.61,
            12.39,
            11.89,
            11.6,
            10.86,
            11.79,
            11.31,
            10.94,
            11.22,
            11.5,
            12.48,
            12.28,
            11.88,
            11.87,
            11.39,
            11.58,
            10.84,
            9.983,
            9.738,
            10.23,
            10.57,
            9.977,
            9.416,
            10.22,
            8.388,
            7.852,
            10.47,
            19.26,
            16.2,
            14.08,
            13.62,
            12.65,
            15.16,
            30.52,
            62.48,
            50.01,
            24.42,
            18.61,
            17.71,
            13.49,
            12.22,
            11.81,
            11.43,
            10.7,
            12.61,
            14.87,
            13.14,
            15.74,
            14.61,
            13.13,
            12.91,
            12.18,
            11.78,
            11.03,
            9.906,
            9.904,
            13.0,
            12.57,
            11.01,
            10.74,
            10.65,
            10.56,
            10.64,
            10.82,
            10.21,
            10.72,
            10.72,
            12.03,
            10.72,
            10.12,
            11.26,
            9.705,
            11.35,
            6.697,
            9.702,
            12.73,
            13.71,
            19.05,
            26.48,
            42.0,
            46.34,
            22.63,
            16.82,
            13.24,
            13.46,
            17.23,
            15.86,
            14.85,
            12.9,
            11.78,
            10.67,
            12.68,
            13.32,
            11.87,
            10.38,
            12.05,
            11.86,
            12.47,
            12.58,
            9.752,
            10.95,
            13.25,
            11.71,
            12.12,
            9.788,
            12.13,
            17.31,
            16.76,
            14.58,
            13.89,
            12.91,
            12.61,
            11.91,
            16.85,
            23.87,
            12.88,
            10.49,
            11.99,
            13.58,
            12.63,
            12.34,
            12.66,
            10.67,
            10.59,
            13.81,
            14.29,
            13.18,
            14.34,
            13.9,
            16.81,
            16.68,
            14.63,
            16.3,
            33.4,
            27.43,
            16.61,
            16.76,
            16.37,
            18.69,
            20.32,
            16.55,
            14.41,
            13.06,
            14.44,
            17.47,
            15.08,
            14.03,
            16.02,
            14.54,
            14.68,
            16.23
          ]
        ]
      }
    },
    "006": {
      "common": null,
      "data": {
        "heads": [
          "EN",
          "DATA"
        ],
        "units": [
          "EV",
          "B"
        ],
        "data": [
          [
            2.579,
            2.779,
            2.899,
            2.979,
            3.178,
            3.418,
            3.578,
            3.777,
            3.897,
            4.057,
            4.217,
            4.336,
            4.576,
            4.616,
            4.816,
            4.895,
            5.055,
            5.215,
            5.295,
            5.414,
            5.574,
            5.654,
            5.734,
            5.854,
            6.013,
            6.133,
            6.293,
            6.413,
            6.612,
            6.812,
            6.972,
            7.132,
            7.211,
            7.291,
            7.451,
            7.611,
            7.691,
            7.77,
            7.97,
            8.05,
            8.17,
            8.329,
            8.449,
            8.609,
            8.649,
            8.849,
            8.968,
            9.008,
            9.168,
            9.288,
            9.408,
            9.567,
            9.607,
            9.847,
            10.09,
            10.33,
            10.37,
            10.53,
            10.61,
            10.77,
            10.85,
            11.08,
            11.2,
            11.36,
            11.52,
            11.6,
            11.8,
            11.84,
            11.88,
            12.0,
            12.12,
            12.28,
            12.32,
            12.4,
            12.48,
            12.52,
            12.72,
            12.88,
            13.0,
            13.12,
            13.16,
            13.28,
            13.32,
            13.4,
            13.44,
            13.52,
            13.64,
            13.68,
            13.84,
            13.92,
            14.08,
            14.16,
            14.24,
            14.28,
            14.44,
            14.6,
            14.76,
            14.96,
            15.04,
            15.28,
            15.36,
            15.6,
            15.8,
            15.88,
            15.96,
            16.12,
            16.16,
            16.32,
            16.52,
            16.64,
            16.79,
            16.91,
            16.99,
            17.03,
            17.11,
            17.19,
            17.23,
            17.27,
            17.43,
            17.47,
            17.59,
            17.63,
            17.83,
            18.03,
            18.15,
            18.23,
            18.39,
            18.55,
            18.87,
            19.03,
            19.07,
            19.35,
            19.47,
            19.59,
            19.79,
            19.91,
            20.03,
            20.27,
            20.31,
            20.43,
            20.67,
            20.87,
            20.95,
            21.07,
            21.19,
            21.39,
            21.43,
            21.63,
            21.71,
            21.75,
            22.07,
            22.31,
            22.51,
            22.59,
            22.66,
            22.78,
            23.06,
            23.18,
            23.3,
            23.62,
            23.66,
            23.94,
            24.14,
            24.18,
            24.3,
            24.46,
            24.62,
            24.86,
            25.1,
            25.22,
            25.46,
            25.62,
            25.66,
            26.06,
            26.22,
            26.42,
            26.58,
            26.86,
            27.1,
            27.3,
            27.38,
            27.54,
            27.94,
            28.1,
            28.34,
            28.57,
            28.57,
            28.77,
            29.05,
            29.13,
            29.17,
            29.37,
            29.49,
            29.65,
            29.81,
            30.13,
            30.25,
            30.45,
            30.65,
            30.89,
            31.09,
            31.25,
            31.45,
            31.53,
            31.89,
            32.05,
            32.25,
            32.37,
            32.49,
            32.61,
            32.89,
            33.09,
            33.45,
            33.69,
            34.01,
            34.25,
            34.44,
            34.68,
            34.88,
            35.12,
            35.32,
            35.8,
            36.08,
            36.24,
            36.6,
            36.8,
            37.04,
            37.24,
            37.64,
            37.84,
            38.24,
            38.48,
            38.72,
            38.92,
            39.28,
            39.76,
            40.47,
            40.79,
            41.27,
            41.71,
            41.95,
            42.19,
            42.51,
            42.75,
            42.83,
            42.99,
            43.07,
            43.31,
            43.39,
            43.67,
            43.75,
            43.99,
            44.31,
            44.39,
            44.59,
            44.71,
            44.91,
            45.03,
            45.31,
            45.35,
            45.51,
            45.71,
            45.75,
            45.91,
            46.14,
            46.38,
            46.58,
            46.78,
            47.3,
            47.34,
            47.5,
            47.66,
            47.74,
            48.06,
            48.15,
            48.48,
            48.95,
            49.41,
            49.67,
            50.0,
            50.59,
            50.72,
            50.99,
            51.52,
            51.85,
            51.98,
            52.11,
            52.24,
            52.64,
            52.77,
            52.97,
            53.1,
            53.29,
            53.56,
            53.89,
            53.95,
            54.42,
            55.01,
            55.4,
            55.93,
            56.46,
            56.99,
            57.38,
            57.97,
            58.3,
            58.76,
            58.96,
            59.56,
            60.02,
            60.74,
            60.81,
            61.27,
            61.8,
            61.93,
            62.45,
            63.25,
            63.84,
            64.37,
            64.83,
            65.22,
            65.42,
            65.75,
            66.21,
            66.87,
            67.0,
            67.73,
            67.92,
            68.25,
            68.39,
            68.91,
            69.11,
            69.7,
            70.43,
            70.69,
            71.15,
            71.75,
            72.01,
            72.54,
            72.93,
            73.72,
            74.05,
            74.18,
            74.58,
            74.91,
            75.11,
            75.77,
            75.9,
            76.1,
            76.89,
            77.55,
            77.74,
            78.2,
            78.4,
            78.6,
            79.06,
            79.19,
            79.32,
            79.98,
            80.05,
            80.31,
            80.64,
            81.1,
            81.57,
            81.76,
            82.09,
            82.49,
            82.95,
            83.54,
            83.74,
            83.94,
            84.46,
            84.86,
            85.65,
            85.91,
            86.24,
            86.71,
            87.43,
            87.56,
            87.89,
            88.75,
            88.95,
            89.54,
            90.0,
            91.91,
            92.23,
            93.98,
            94.45,
            94.93,
            95.41,
            96.05,
            96.68,
            97.48,
            98.43,
            99.07,
            100.0,
            100.8,
            101.5,
            101.8,
            102.2,
            103.0,
            103.4,
            104.2,
            105.3,
            105.4,
            106.9,
            108.1,
            109.4,
            109.7,
            110.7,
            111.3,
            112.0,
            112.3,
            113.5,
            115.0,
            115.1,
            115.9,
            116.6,
            117.5,
            118.2,
            118.8,
            119.4,
            119.9,
            120.4,
            121.0,
            122.0,
            122.5,
            122.8,
            123.7,
            124.5,
            124.8,
            125.6,
            126.0,
            126.6,
            127.1,
            127.5,
            128.5,
            129.0,
            129.5,
            130.9,
            132.2,
            132.6,
            134.1,
            134.9,
            135.5,
            136.1,
            136.6,
            137.9,
            138.5,
            139.5,
            139.6,
            140.4,
            141.5,
            142.0,
            143.3,
            143.6,
            144.4,
            145.4,
            146.2,
            147.6,
            148.4,
            149.5,
            150.0,
            151.6,
            152.4,
            152.7,
            153.8,
            154.4,
            154.9,
            155.9,
            156.8,
            158.4,
            159.2,
            159.7,
            160.7,
            162.4,
            163.9,
            165.4,
            166.0,
            167.4,
            168.3,
            168.6,
            169.5,
            171.2,
            173.3,
            173.9,
            174.5,
            175.7,
            176.5,
            178.3,
            179.2,
            180.7,
            182.4,
            183.3,
            183.9,
            185.7,
            186.3,
            187.2,
            188.3,
            188.9,
            190.7,
            192.2,
            193.3,
            196.3,
            196.6,
            199.3,
            200.2,
            202.5,
            203.1,
            204.3,
            205.8,
            206.6,
            207.2,
            209.3,
            210.2,
            211.4,
            212.8,
            214.0,
            215.2,
            217.2,
            218.1,
            219.0,
            221.4,
            222.6,
            224.9,
            226.7,
            227.3,
            229.1,
            230.5,
            231.7,
            233.5,
            235.5,
            238.2,
            239.1,
            240.3,
            242.3,
            243.5,
            244.7,
            247.4,
            248.2,
            249.4,
            251.8,
            253.6,
            254.7,
            257.1,
            258.0,
            259.4,
            262.1,
            264.4,
            266.5,
            268.0,
            270.3,
            272.7,
            273.9,
            275.7,
            278.3,
            279.5,
            281.9,
            283.9,
            285.4,
            290.4,
            291.6,
            293.3,
            296.6,
            298.1,
            299.3,
            302.8,
            304.6,
            306.0,
            309.0,
            309.9,
            312.8,
            316.1,
            317.8,
            319.3,
            323.5,
            324.3,
            326.7,
            330.2,
            332.3,
            334.1,
            337.6,
            340.0,
            342.0,
            345.9,
            347.9,
            349.7,
            353.2,
            355.6,
            361.8,
            363.8,
            366.5,
            370.3,
            373.8,
            374.7,
            379.1,
            381.8,
            384.2,
            388.6,
            391.0,
            393.3,
            398.0,
            400.4,
            403.3,
            407.7,
            410.1,
            413.1,
            418.4,
            421.0,
            423.4,
            428.7,
            431.6,
            434.6,
            439.9,
            442.8,
            446.1,
            452.0,
            454.6,
            457.6,
            463.8
          ],
          [
            14.2,
            14.2,
            12.58,
            13.98,
            13.16,
            12.77,
            12.97,
            13.16,
            13.98,
            12.21,
            13.16,
            13.36,
            13.16,
            12.21,
            12.21,
            12.97,
            12.21,
            13.36,
            12.02,
            11.66,
            13.16,
            11.84,
            12.77,
            12.39,
            11.84,
            12.97,
            12.77,
            12.21,
            12.21,
            11.84,
            11.15,
            11.49,
            12.58,
            11.15,
            11.15,
            10.49,
            12.21,
            11.66,
            10.18,
            10.82,
            8.241,
            10.03,
            8.117,
            6.979,
            10.03,
            13.57,
            17.02,
            26.77,
            29.31,
            23.72,
            17.81,
            12.77,
            10.98,
            11.15,
            12.02,
            14.85,
            13.16,
            13.36,
            11.49,
            11.32,
            10.18,
            10.34,
            9.731,
            9.441,
            9.879,
            8.887,
            9.299,
            10.65,
            10.03,
            9.441,
            7.876,
            6.67,
            6.375,
            10.98,
            8.887,
            14.2,
            16.02,
            23.72,
            28.44,
            22.33,
            19.2,
            17.81,
            12.77,
            10.65,
            17.28,
            6.472,
            9.16,
            13.98,
            18.63,
            24.09,
            30.67,
            27.18,
            20.71,
            24.45,
            16.76,
            16.02,
            14.2,
            15.54,
            14.2,
            14.2,
            12.21,
            11.32,
            13.16,
            12.21,
            10.98,
            11.15,
            12.21,
            9.731,
            9.585,
            8.366,
            9.731,
            14.85,
            21.34,
            16.02,
            26.77,
            24.45,
            29.31,
            45.42,
            42.12,
            34.61,
            20.4,
            22.33,
            22.0,
            18.63,
            17.02,
            18.91,
            15.31,
            13.98,
            14.2,
            13.98,
            15.08,
            14.85,
            12.77,
            12.97,
            12.39,
            12.02,
            12.58,
            13.98,
            11.66,
            17.81,
            23.72,
            27.18,
            30.21,
            34.61,
            30.21,
            27.18,
            21.34,
            25.2,
            20.09,
            17.28,
            16.02,
            14.63,
            17.28,
            14.2,
            15.54,
            13.98,
            17.02,
            14.85,
            12.97,
            13.98,
            12.58,
            12.97,
            15.78,
            15.78,
            17.02,
            15.31,
            14.2,
            11.84,
            13.36,
            13.57,
            11.66,
            10.98,
            7.758,
            15.31,
            17.28,
            21.02,
            23.72,
            26.37,
            24.45,
            18.35,
            17.28,
            15.31,
            12.39,
            14.2,
            17.02,
            13.77,
            13.77,
            15.54,
            16.26,
            13.98,
            12.97,
            14.63,
            12.39,
            11.32,
            12.39,
            11.84,
            14.85,
            14.2,
            15.31,
            17.02,
            14.41,
            15.54,
            16.76,
            21.34,
            18.63,
            22.33,
            20.4,
            14.41,
            16.26,
            17.02,
            13.77,
            12.39,
            13.16,
            13.16,
            16.02,
            14.63,
            15.78,
            16.76,
            14.63,
            17.54,
            15.08,
            12.02,
            13.16,
            13.57,
            14.2,
            12.77,
            14.2,
            14.63,
            15.08,
            12.21,
            13.98,
            15.08,
            14.85,
            13.77,
            10.98,
            12.39,
            14.41,
            12.58,
            15.08,
            16.26,
            25.2,
            28.44,
            13.77,
            10.34,
            11.66,
            11.66,
            13.77,
            12.77,
            15.54,
            18.35,
            28.87,
            37.89,
            25.98,
            23.02,
            20.4,
            17.81,
            15.54,
            11.84,
            13.57,
            16.26,
            17.54,
            32.58,
            42.12,
            40.87,
            34.61,
            20.09,
            15.78,
            16.02,
            12.97,
            10.49,
            10.98,
            12.97,
            14.63,
            15.54,
            10.0,
            10.94,
            10.0,
            10.0,
            13.92,
            20.91,
            20.29,
            16.19,
            14.35,
            15.01,
            17.72,
            22.54,
            25.81,
            42.41,
            46.42,
            61.78,
            54.77,
            43.05,
            31.39,
            27.0,
            20.29,
            15.24,
            15.47,
            15.71,
            10.31,
            12.92,
            14.57,
            16.93,
            15.24,
            13.11,
            15.24,
            16.93,
            15.01,
            20.91,
            19.1,
            12.16,
            15.24,
            10.78,
            11.11,
            10.0,
            12.92,
            11.98,
            11.98,
            12.72,
            17.72,
            25.81,
            38.75,
            44.37,
            55.6,
            41.15,
            33.84,
            25.04,
            20.29,
            18.82,
            14.57,
            13.11,
            14.14,
            15.24,
            15.94,
            13.72,
            11.62,
            12.92,
            15.94,
            19.68,
            22.2,
            23.58,
            32.84,
            27.0,
            47.12,
            53.15,
            45.04,
            33.84,
            43.05,
            27.0,
            23.23,
            17.72,
            19.68,
            17.72,
            11.8,
            18.53,
            18.82,
            12.72,
            18.82,
            15.71,
            11.8,
            13.72,
            13.72,
            14.14,
            13.72,
            15.47,
            14.57,
            14.14,
            16.68,
            21.87,
            17.45,
            22.2,
            19.68,
            22.2,
            23.23,
            30.46,
            29.11,
            23.58,
            24.67,
            21.54,
            30.92,
            25.04,
            29.55,
            28.25,
            33.84,
            34.35,
            44.37,
            36.48,
            30.0,
            24.67,
            19.39,
            16.19,
            17.72,
            20.29,
            17.19,
            18.82,
            18.53,
            18.26,
            14.35,
            11.8,
            10.15,
            12.16,
            17.72,
            16.19,
            23.58,
            20.29,
            29.55,
            34.35,
            28.25,
            25.81,
            17.98,
            16.68,
            15.01,
            13.31,
            13.92,
            11.8,
            14.57,
            15.71,
            16.43,
            17.98,
            19.1,
            23.94,
            27.0,
            30.46,
            47.83,
            42.41,
            30.0,
            32.84,
            25.42,
            16.43,
            20.59,
            22.54,
            17.72,
            21.22,
            19.98,
            18.82,
            18.53,
            20.59,
            17.98,
            23.23,
            23.58,
            21.54,
            27.0,
            31.39,
            30.0,
            28.68,
            23.23,
            27.0,
            22.54,
            24.3,
            19.98,
            17.19,
            20.91,
            19.39,
            20.91,
            16.68,
            19.39,
            18.53,
            21.87,
            24.3,
            23.23,
            23.94,
            20.91,
            19.1,
            16.43,
            17.72,
            15.94,
            16.43,
            15.71,
            15.01,
            16.19,
            20.29,
            16.93,
            18.26,
            14.57,
            33.88,
            33.42,
            38.76,
            38.75,
            35.26,
            32.07,
            25.83,
            23.82,
            19.72,
            18.18,
            23.81,
            15.24,
            14.44,
            18.41,
            16.08,
            16.08,
            13.67,
            14.62,
            16.96,
            12.1,
            15.02,
            16.73,
            14.61,
            18.88,
            17.41,
            15.21,
            18.62,
            17.4,
            15.0,
            17.16,
            22.17,
            18.85,
            23.08,
            21.27,
            16.46,
            20.15,
            24.67,
            21.55,
            26.39,
            23.05,
            16.44,
            20.68,
            18.56,
            11.88,
            19.32,
            17.1,
            15.56,
            17.8,
            20.37,
            17.32,
            19.29,
            19.28,
            21.77,
            23.29,
            18.51,
            21.47,
            18.25,
            21.17,
            23.89,
            15.3,
            19.77,
            20.58,
            15.5,
            23.87,
            25.87,
            22.6,
            27.67,
            29.6,
            29.19,
            31.22,
            25.15,
            19.45,
            21.09,
            21.95,
            21.08,
            12.78,
            13.31,
            13.67,
            22.83,
            19.67,
            36.6,
            30.7,
            26.45,
            32.38,
            28.67,
            25.38,
            24.69,
            17.37,
            20.15,
            24.01,
            18.32,
            24.32,
            25.66,
            21.23,
            25.3,
            30.14,
            22.7,
            29.32,
            23.3,
            19.54,
            23.92,
            28.5,
            23.91,
            25.22,
            28.47,
            26.96,
            28.45,
            30.42,
            29.2,
            35.27,
            30.38,
            26.54,
            35.23,
            29.94,
            25.46,
            17.42,
            20.76,
            21.32,
            16.27,
            16.93,
            18.86,
            14.98,
            16.68,
            19.61,
            28.99,
            19.59,
            20.67,
            14.34,
            12.7,
            16.19,
            13.57,
            16.39,
            17.29,
            14.49,
            17.98,
            12.15,
            14.87,
            16.34,
            16.55,
            23.18,
            13.32,
            18.91,
            17.19,
            14.22,
            21.03,
            15.61
          ]
        ]
      }
    }
  },
  "experimental_conditions": {
    "001": {
      "0": {
        "correction": [
          {
            "x4_code": null,
            "free_txt": [
              "Corrections were made for:",
              ". dead-time,",
              ". neutron monitor efficiency,",
              ". neutrons scattered near zero degrees that were",
              "  detected by transmission detector,",
              ". differences in detector resolutions,",
              ". flight-path differences,",
              ". sample self-shielding and multiple scattering."
            ]
          }
        ],
        "detector": [
          {
            "x4_code": "(PROPC)",
            "free_txt": [
              " Two BF3 scattered neutron detectors, one BF3",
              "transmission detector and one BF3 flux monitor.",
              "Scattered neutron detectors at 90 degrees to the",
              "neutron beam."
            ]
          }
        ],
        "err-analys": [
          {
            "x4_code": "(ERR-1,5.,10.)",
            "free_txt": [
              " Multiple scattering error."
            ]
          },
          {
            "x4_code": "(ERR-S,3.,30.)",
            "free_txt": [
              " Statistical errors."
            ]
          }
        ],
        "facility": [
          {
            "x4_code": "(LINAC,1USARPI)",
            "free_txt": []
          }
        ],
        "method": [
          {
            "x4_code": "(TOF)",
            "free_txt": [
              " 0.25 msec pulses, at 480 Hz repetition rate.",
              " Peak current = 3 Amp."
            ]
          }
        ],
        "part-det": [
          {
            "x4_code": "(N)",
            "free_txt": []
          }
        ],
        "sample": [
          {
            "x4_code": null,
            "free_txt": [
              "Inverse sample thicknesses were 188, 211 and 435 B/atom",
              " for 233U, 235U and 239Pu, respectively, at 45 degrees",
              "to the beam."
            ]
          }
        ],
        "status": [
          {
            "x4_code": "(APRVD)",
            "free_txt": [
              " Approved by author."
            ]
          }
        ]
      }
    },
    "002": {
      "0": {
        "analysis": [
          {
            "x4_code": null,
            "free_txt": [
              "Isotropic (s-wave) scattering assumed."
            ]
          }
        ],
        "flag": [
          {
            "x4_code": "(1.)",
            "free_txt": [
              " Spin assignment uncertain."
            ]
          }
        ]
      }
    },
    "003": {
      "0": {
        "analysis": [
          {
            "x4_code": null,
            "free_txt": [
              "Isotropic (s-wave) scattering assumed."
            ]
          }
        ],
        "flag": [
          {
            "x4_code": "(1.)",
            "free_txt": [
              " Spin assignment uncertain"
            ]
          }
        ]
      }
    },
    "004": {
      "0": {
        "comment": [
          {
            "x4_code": null,
            "free_txt": [
              "Compiler comment: Poor resolution data measured to",
              "determine spins. Cross section curves are",
              "contaminated with resonance peaks from 234U at 5 and",
              "48 eV and 238U at 7, 21, 37, 66, 120 and 190 eV.",
              "Consequently, it is rather RAW than final data.",
              "Combined 5 spectra in to single spectrum."
            ]
          }
        ],
        "status": [
          {
            "x4_code": "(CURVE)",
            "free_txt": [
              " Fig.2-3, pages 43-44."
            ]
          }
        ]
      }
    },
    "005": {
      "0": {
        "comment": [
          {
            "x4_code": null,
            "free_txt": [
              "Compiler comment: Poor resolution data measured to",
              "determine spins. Cross section curves are",
              "contaminated with resonance peaks from 236U",
              "at 5 eV and 238U at 6, 21, 37, 66,",
              "100 and 120 eV. Consequently, it is rather RAW than",
              "final data. Combined 4 spectra with scale change into",
              "single spectrum."
            ]
          }
        ],
        "status": [
          {
            "x4_code": "(CURVE)",
            "free_txt": [
              " Fig.4, page 45."
            ]
          }
        ]
      }
    },
    "006": {
      "0": {
        "comment": [
          {
            "x4_code": null,
            "free_txt": [
              "Compiler comment: Poor resolution data measured to",
              "determine spins.",
              "Cross section curves are contaminated with resonance",
              "peaks from 240Pu at 39 and 67 eV. Consequently, it is",
              "rather RAW than final data. Combined 4 spectra with",
              "scale change  in to single spectrum."
            ]
          }
        ],
        "status": [
          {
            "x4_code": "(CURVE)",
            "free_txt": [
              " Fig.5, page 46."
            ]
          }
        ]
      }
    }
  }
}