{
  "entry": "20936",
  "last_updated": "2006-07-20",
  "number_of_revisions": "3",
  "histories": [
    {
      "x4_code": "(790606T)",
      "free_txt": []
    },
    {
      "x4_code": "(790628E)",
      "free_txt": []
    }
  ],
  "bib_record": {
    "title": "-THE INFLUENCE OF CHEMICAL BINDING ON NEUTRON CROSS-SECTION AT HIGHER ENERGIES-.",
    "authors": [
      {
        "name": "K.Dritter"
      }
    ],
    "institutes": [
      {
        "x4_code": "(2GERKIL)",
        "free_txt": []
      }
    ],
    "references": [
      {
        "x4_code": "(C,66PARIS,1,155,6610)",
        "free_txt": [],
        "publication_year": "1966",
        "pointer": "0"
      },
      {
        "x4_code": "(R,INDC-156,,67)",
        "free_txt": [
          " FULL REPORT OF 66PARIS."
        ],
        "publication_year": "1967",
        "pointer": "0"
      },
      {
        "x4_code": "(J,AKE,12,399,6712)",
        "free_txt": [
          " CURVE."
        ],
        "publication_year": "1967",
        "pointer": "0"
      }
    ],
    "facilities": [
      {
        "x4_code": "(VDG  )",
        "free_txt": [],
        "pointer": "0"
      }
    ]
  },
  "reactions": {
    "002": {
      "0": {
        "x4_code": "(29-CU-0(N,TOT),,SIG)",
        "children": [
          {
            "code": [
              "29-CU-0",
              [
                "N,TOT"
              ],
              ",,SIG"
            ],
            "type": null,
            "target": "29-CU-0",
            "process": "N,TOT",
            "sf49": ",,SIG",
            "sf4": null,
            "sf5": null,
            "sf6": "SIG",
            "sf7": null,
            "sf8": null,
            "sf9": null
          }
        ],
        "type": null,
        "free_text": ""
      }
    },
    "003": {
      "0": {
        "x4_code": "(29-CU-0(N,TOT),,SIG)",
        "children": [
          {
            "code": [
              "29-CU-0",
              [
                "N,TOT"
              ],
              ",,SIG"
            ],
            "type": null,
            "target": "29-CU-0",
            "process": "N,TOT",
            "sf49": ",,SIG",
            "sf4": null,
            "sf5": null,
            "sf6": "SIG",
            "sf7": null,
            "sf8": null,
            "sf9": null
          }
        ],
        "type": null,
        "free_text": ""
      }
    }
  },
  "data_tables": {
    "001": {
      "common": null
    },
    "002": {
      "common": null,
      "data": {
        "heads": [
          "EN",
          "DATA"
        ],
        "units": [
          "MEV",
          "B"
        ],
        "data": [
          [
            1.4924e-06,
            1.4953e-06,
            1.4983e-06,
            1.5012e-06,
            1.5042e-06,
            1.5072e-06,
            1.5101e-06,
            1.5131e-06,
            1.5161e-06,
            1.5191e-06,
            1.5221e-06,
            1.5252e-06,
            1.5282e-06,
            1.5312e-06,
            1.5343e-06,
            1.5373e-06,
            1.5404e-06,
            1.5435e-06,
            1.5466e-06,
            1.5497e-06,
            1.5528e-06,
            1.5559e-06,
            1.559e-06,
            1.5622e-06,
            1.5653e-06,
            1.5684e-06,
            1.5716e-06,
            1.5748e-06,
            1.578e-06,
            1.5812e-06,
            1.5844e-06,
            1.5876e-06,
            1.5908e-06,
            1.594e-06,
            1.5973e-06,
            1.6005e-06,
            1.6038e-06,
            1.607e-06,
            1.6103e-06,
            1.6136e-06,
            1.6169e-06,
            1.6202e-06,
            1.6235e-06,
            1.6269e-06,
            1.6302e-06,
            1.6336e-06,
            1.6369e-06,
            1.6403e-06,
            1.6437e-06,
            1.6471e-06,
            1.6505e-06,
            1.6539e-06,
            1.6573e-06,
            1.6607e-06,
            1.6642e-06,
            1.6677e-06,
            1.6711e-06,
            1.6746e-06,
            1.6781e-06,
            1.6816e-06,
            1.6851e-06,
            1.6886e-06,
            1.6922e-06,
            1.6957e-06,
            1.6992e-06,
            1.7028e-06,
            1.7064e-06,
            1.71e-06,
            1.7136e-06,
            1.7172e-06,
            1.7208e-06,
            1.7245e-06,
            1.7281e-06,
            1.7318e-06,
            1.7354e-06,
            1.7391e-06,
            1.7428e-06,
            1.7465e-06,
            1.7502e-06,
            1.7539e-06,
            1.7577e-06,
            1.7614e-06,
            1.7652e-06,
            1.769e-06,
            1.7728e-06,
            1.7766e-06,
            1.7804e-06,
            1.7842e-06,
            1.788e-06,
            1.7919e-06,
            1.7958e-06,
            1.7996e-06,
            1.8035e-06,
            1.8074e-06,
            1.8113e-06,
            1.8153e-06,
            1.8192e-06,
            1.8232e-06,
            1.8271e-06,
            1.8311e-06,
            1.8351e-06,
            1.8391e-06,
            1.8431e-06,
            1.8471e-06,
            1.8512e-06,
            1.8552e-06,
            1.8593e-06,
            1.8634e-06,
            1.8675e-06,
            1.8716e-06,
            1.8757e-06,
            1.8798e-06,
            1.884e-06,
            1.8882e-06,
            1.8923e-06,
            1.8965e-06,
            1.9007e-06,
            1.9049e-06,
            1.9092e-06,
            1.9134e-06,
            1.9177e-06,
            1.922e-06,
            1.9263e-06,
            1.9306e-06,
            1.9349e-06,
            1.9392e-06,
            1.9436e-06,
            1.9479e-06,
            1.9523e-06,
            1.9567e-06,
            1.9611e-06,
            1.9655e-06,
            1.97e-06,
            1.9744e-06,
            1.9789e-06,
            1.9834e-06,
            1.9879e-06,
            1.9924e-06,
            1.9969e-06,
            2.0015e-06,
            2.006e-06,
            2.0106e-06,
            2.0152e-06,
            2.0198e-06,
            2.0244e-06,
            2.029e-06,
            2.0337e-06,
            2.0384e-06,
            2.0431e-06,
            2.0478e-06,
            2.0525e-06,
            2.0572e-06,
            2.062e-06,
            2.0667e-06,
            2.0715e-06,
            2.0763e-06,
            2.0811e-06,
            2.086e-06,
            2.0908e-06,
            2.0957e-06,
            2.1006e-06,
            2.1055e-06,
            2.1104e-06,
            2.1154e-06,
            2.1203e-06,
            2.1253e-06,
            2.1303e-06,
            2.1353e-06,
            2.1403e-06,
            2.1453e-06,
            2.1504e-06,
            2.1555e-06,
            2.1606e-06,
            2.1657e-06,
            2.1708e-06,
            2.176e-06,
            2.1811e-06,
            2.1863e-06,
            2.1915e-06,
            2.1968e-06,
            2.202e-06,
            2.2073e-06,
            2.2125e-06,
            2.2178e-06,
            2.2232e-06,
            2.2285e-06,
            2.2339e-06,
            2.2392e-06,
            2.2446e-06,
            2.2501e-06,
            2.2555e-06,
            2.2609e-06,
            2.2664e-06,
            2.2719e-06,
            2.2774e-06,
            2.283e-06,
            2.2885e-06,
            2.2941e-06,
            2.2997e-06,
            2.3053e-06,
            2.3109e-06,
            2.3166e-06,
            2.3223e-06,
            2.328e-06,
            2.3337e-06,
            2.3394e-06,
            2.3452e-06,
            2.351e-06,
            2.3568e-06,
            2.3626e-06,
            2.3685e-06,
            2.3743e-06,
            2.3802e-06,
            2.3861e-06,
            2.3921e-06,
            2.398e-06,
            2.404e-06,
            2.41e-06,
            2.416e-06,
            2.4221e-06,
            2.4282e-06,
            2.4343e-06,
            2.4404e-06,
            2.4465e-06,
            2.4527e-06,
            2.4589e-06,
            2.4651e-06,
            2.4713e-06,
            2.4776e-06,
            2.4839e-06,
            2.4902e-06,
            2.4965e-06,
            2.5028e-06,
            2.5092e-06,
            2.5156e-06,
            2.522e-06,
            2.5285e-06,
            2.535e-06,
            2.5415e-06,
            2.548e-06,
            2.5546e-06,
            2.5611e-06,
            2.5677e-06,
            2.5744e-06,
            2.581e-06,
            2.5877e-06,
            2.5944e-06,
            2.6011e-06,
            2.6079e-06,
            2.6147e-06,
            2.6215e-06,
            2.6283e-06,
            2.6352e-06,
            2.6421e-06,
            2.649e-06,
            2.6559e-06,
            2.6629e-06,
            2.6699e-06,
            2.6769e-06,
            2.684e-06,
            2.6911e-06,
            2.6982e-06,
            2.7053e-06,
            2.7125e-06,
            2.7197e-06,
            2.7269e-06,
            2.7342e-06,
            2.7414e-06,
            2.7487e-06,
            2.7561e-06,
            2.7635e-06,
            2.7709e-06,
            2.7783e-06,
            2.7857e-06,
            2.7932e-06,
            2.8008e-06,
            2.8083e-06,
            2.8159e-06,
            2.8235e-06,
            2.8311e-06,
            2.8388e-06,
            2.8465e-06,
            2.8542e-06,
            2.862e-06,
            2.8698e-06,
            2.8777e-06,
            2.8855e-06,
            2.8934e-06,
            2.9013e-06,
            2.9093e-06,
            2.9173e-06,
            2.9253e-06,
            2.9334e-06,
            2.9415e-06,
            2.9496e-06,
            2.9578e-06,
            2.966e-06,
            2.9742e-06,
            2.9825e-06,
            2.9908e-06,
            2.9991e-06,
            3.0074e-06,
            3.0159e-06,
            3.0243e-06,
            3.0328e-06,
            3.0413e-06,
            3.0498e-06,
            3.0584e-06,
            3.067e-06,
            3.0757e-06,
            3.0844e-06,
            3.0931e-06,
            3.1018e-06,
            3.1106e-06,
            3.1195e-06,
            3.1284e-06,
            3.1373e-06,
            3.1462e-06,
            3.1552e-06,
            3.1642e-06,
            3.1733e-06,
            3.1824e-06,
            3.1916e-06,
            3.2007e-06,
            3.21e-06,
            3.2192e-06,
            3.2285e-06,
            3.2379e-06,
            3.2473e-06,
            3.2567e-06,
            3.2662e-06,
            3.2757e-06,
            3.2852e-06,
            3.2948e-06,
            3.3045e-06,
            3.3141e-06,
            3.3239e-06,
            3.3336e-06,
            3.3434e-06,
            3.3533e-06,
            3.3632e-06,
            3.3731e-06,
            3.3831e-06,
            3.3931e-06,
            3.4032e-06,
            3.4133e-06,
            3.4235e-06,
            3.4337e-06,
            3.4439e-06,
            3.4542e-06,
            3.4646e-06,
            3.475e-06,
            3.4854e-06,
            3.4959e-06,
            3.5064e-06,
            3.517e-06,
            3.5276e-06,
            3.5383e-06,
            3.549e-06,
            3.5598e-06,
            3.5706e-06,
            3.5815e-06,
            3.5924e-06,
            3.6034e-06,
            3.6144e-06,
            3.6255e-06,
            3.6366e-06,
            3.6477e-06,
            3.659e-06,
            3.6702e-06,
            3.6816e-06,
            3.693e-06,
            3.7044e-06,
            3.7159e-06,
            3.7274e-06,
            3.739e-06,
            3.7507e-06,
            3.7624e-06,
            3.7741e-06,
            3.7859e-06,
            3.7978e-06,
            3.8098e-06,
            3.8217e-06,
            3.8338e-06,
            3.8459e-06,
            3.858e-06,
            3.8702e-06,
            3.8825e-06,
            3.8948e-06,
            3.9072e-06,
            3.9197e-06,
            3.9322e-06,
            3.9447e-06,
            3.9574e-06,
            3.97e-06,
            3.9828e-06,
            3.9956e-06,
            4.0085e-06,
            4.0214e-06,
            4.0344e-06,
            4.0475e-06,
            4.0606e-06,
            4.0738e-06,
            4.087e-06,
            4.1003e-06,
            4.1137e-06,
            4.1272e-06,
            4.1407e-06,
            4.1542e-06,
            4.1679e-06,
            4.1816e-06,
            4.1954e-06,
            4.2092e-06,
            4.2231e-06,
            4.2371e-06,
            4.2512e-06,
            4.2653e-06,
            4.2795e-06,
            4.2938e-06,
            4.3081e-06,
            4.3225e-06,
            4.337e-06,
            4.3516e-06,
            4.3662e-06,
            4.3809e-06,
            4.3957e-06,
            4.4105e-06,
            4.4255e-06,
            4.4405e-06,
            4.4555e-06,
            4.4707e-06,
            4.4859e-06,
            4.5012e-06,
            4.5166e-06,
            4.5321e-06,
            4.5477e-06,
            4.5633e-06,
            4.579e-06,
            4.5948e-06,
            4.6107e-06,
            4.6266e-06,
            4.6427e-06,
            4.6588e-06,
            4.675e-06,
            4.6913e-06,
            4.7077e-06,
            4.7241e-06,
            4.7407e-06,
            4.7573e-06,
            4.774e-06,
            4.7909e-06,
            4.8077e-06,
            4.8247e-06,
            4.8418e-06,
            4.859e-06,
            4.8763e-06,
            4.8936e-06,
            4.9111e-06,
            4.9286e-06,
            4.9463e-06,
            4.964e-06,
            4.9818e-06,
            4.9997e-06,
            5.0178e-06,
            5.0359e-06,
            5.0541e-06,
            5.0724e-06,
            5.0908e-06,
            5.1093e-06,
            5.1279e-06,
            5.1467e-06,
            5.1655e-06,
            5.1844e-06,
            5.2034e-06,
            5.2226e-06,
            5.2418e-06,
            5.2612e-06,
            5.2806e-06,
            5.3002e-06,
            5.3199e-06,
            5.3396e-06,
            5.3595e-06,
            5.3795e-06,
            5.3996e-06,
            5.4199e-06,
            5.4402e-06,
            5.4607e-06,
            5.4812e-06,
            5.5019e-06,
            5.5227e-06,
            5.5436e-06,
            5.5647e-06,
            5.5858e-06,
            5.6071e-06,
            5.6285e-06,
            5.6501e-06,
            5.6717e-06,
            5.6935e-06,
            5.7154e-06,
            5.7374e-06,
            5.7596e-06,
            5.7819e-06,
            5.8043e-06,
            5.8268e-06,
            5.8495e-06,
            5.8723e-06,
            5.8953e-06,
            5.9183e-06,
            5.9416e-06,
            5.9649e-06,
            5.9884e-06,
            6.012e-06,
            6.0358e-06,
            6.0597e-06,
            6.0837e-06,
            6.1079e-06,
            6.1323e-06,
            6.1568e-06,
            6.1814e-06,
            6.2062e-06,
            6.2311e-06,
            6.2562e-06,
            6.2814e-06,
            6.3068e-06,
            6.3323e-06,
            6.358e-06,
            6.3839e-06,
            6.4099e-06,
            6.4361e-06,
            6.4624e-06,
            6.4889e-06,
            6.5155e-06,
            6.5424e-06,
            6.5693e-06,
            6.5965e-06,
            6.6238e-06,
            6.6513e-06,
            6.679e-06,
            6.7068e-06,
            6.7348e-06,
            6.763e-06,
            6.7914e-06,
            6.8199e-06,
            6.8486e-06,
            6.8775e-06,
            6.9066e-06,
            6.9359e-06,
            6.9653e-06,
            6.995e-06,
            7.0248e-06,
            7.0548e-06,
            7.0851e-06,
            7.1155e-06,
            7.1461e-06,
            7.1769e-06,
            7.2079e-06,
            7.2391e-06,
            7.2705e-06,
            7.3022e-06,
            7.334e-06,
            7.366e-06,
            7.3983e-06,
            7.4307e-06,
            7.4634e-06,
            7.4963e-06,
            7.5294e-06,
            7.5627e-06,
            7.5962e-06,
            7.63e-06,
            7.664e-06,
            7.6982e-06,
            7.7327e-06,
            7.7674e-06,
            7.8023e-06,
            7.8374e-06,
            7.8728e-06,
            7.9084e-06,
            7.9443e-06,
            7.9804e-06,
            8.0168e-06,
            8.0534e-06,
            8.0903e-06,
            8.1274e-06,
            8.1648e-06,
            8.2024e-06,
            8.2403e-06,
            8.2785e-06,
            8.3169e-06,
            8.3556e-06,
            8.3945e-06,
            8.4338e-06,
            8.4733e-06,
            8.5131e-06,
            8.5532e-06,
            8.5935e-06,
            8.6341e-06,
            8.6751e-06,
            8.7163e-06,
            8.7578e-06,
            8.7996e-06,
            8.8417e-06,
            8.8842e-06,
            8.9269e-06,
            8.9699e-06,
            9.0133e-06,
            9.0569e-06,
            9.1009e-06,
            9.1452e-06,
            9.1898e-06,
            9.2348e-06,
            9.28e-06,
            9.3257e-06,
            9.3716e-06,
            9.4179e-06,
            9.4645e-06,
            9.5115e-06,
            9.5588e-06,
            9.6065e-06,
            9.6546e-06,
            9.703e-06,
            9.7518e-06,
            9.8009e-06,
            9.8504e-06,
            9.9003e-06,
            9.9506e-06,
            1.0001e-05,
            1.0052e-05,
            1.0104e-05,
            1.0155e-05,
            1.0208e-05,
            1.026e-05,
            1.0313e-05,
            1.0367e-05,
            1.0421e-05,
            1.0475e-05,
            1.053e-05,
            1.0585e-05,
            1.064e-05,
            1.0696e-05,
            1.0753e-05,
            1.081e-05,
            1.0867e-05,
            1.0925e-05,
            1.0983e-05,
            1.1042e-05,
            1.1101e-05,
            1.1161e-05,
            1.1221e-05,
            1.1282e-05,
            1.1343e-05,
            1.1405e-05,
            1.1467e-05,
            1.1529e-05,
            1.1593e-05,
            1.1656e-05,
            1.1721e-05,
            1.1785e-05,
            1.1851e-05,
            1.1916e-05,
            1.1983e-05,
            1.205e-05,
            1.2117e-05,
            1.2186e-05,
            1.2254e-05,
            1.2323e-05,
            1.2393e-05,
            1.2464e-05,
            1.2535e-05,
            1.2606e-05,
            1.2679e-05,
            1.2752e-05,
            1.2825e-05,
            1.2899e-05,
            1.2974e-05,
            1.3049e-05,
            1.3126e-05,
            1.3202e-05,
            1.328e-05,
            1.3358e-05,
            1.3437e-05,
            1.3516e-05,
            1.3597e-05,
            1.3677e-05,
            1.3759e-05,
            1.3842e-05,
            1.3925e-05,
            1.4009e-05,
            1.4093e-05,
            1.4179e-05,
            1.4265e-05,
            1.4352e-05,
            1.444e-05,
            1.4528e-05,
            1.4618e-05,
            1.4708e-05,
            1.4799e-05,
            1.4891e-05,
            1.4984e-05,
            1.5078e-05,
            1.5172e-05,
            1.5268e-05,
            1.5364e-05,
            1.5461e-05,
            1.556e-05,
            1.5659e-05,
            1.5759e-05,
            1.586e-05,
            1.5962e-05,
            1.6065e-05,
            1.6169e-05,
            1.6274e-05,
            1.638e-05,
            1.6487e-05,
            1.6595e-05,
            1.6704e-05,
            1.6815e-05,
            1.6926e-05,
            1.7039e-05,
            1.7152e-05,
            1.7267e-05,
            1.7383e-05,
            1.75e-05,
            1.7618e-05,
            1.7738e-05,
            1.7858e-05,
            1.798e-05,
            1.8104e-05,
            1.8228e-05,
            1.8354e-05,
            1.8481e-05,
            1.8609e-05,
            1.8739e-05,
            1.887e-05,
            1.9003e-05,
            1.9136e-05,
            1.9272e-05,
            1.9408e-05,
            1.9547e-05,
            1.9686e-05,
            1.9827e-05,
            1.997e-05,
            2.0114e-05,
            2.026e-05,
            2.0408e-05,
            2.0557e-05,
            2.0707e-05,
            2.086e-05,
            2.1014e-05,
            2.1169e-05,
            2.1327e-05,
            2.1486e-05,
            2.1647e-05,
            2.181e-05,
            2.1974e-05,
            2.2141e-05,
            2.2309e-05,
            2.248e-05,
            2.2652e-05,
            2.2826e-05,
            2.3003e-05,
            2.3181e-05,
            2.3362e-05,
            2.3544e-05,
            2.3729e-05,
            2.3916e-05,
            2.4105e-05,
            2.4296e-05,
            2.449e-05,
            2.4686e-05,
            2.4884e-05,
            2.5085e-05,
            2.5288e-05,
            2.5494e-05,
            2.5702e-05,
            2.5913e-05,
            2.6126e-05,
            2.6342e-05,
            2.6561e-05,
            2.6782e-05,
            2.7007e-05,
            2.7234e-05,
            2.7464e-05,
            2.7697e-05,
            2.7932e-05,
            2.8171e-05,
            2.8413e-05,
            2.8658e-05,
            2.8906e-05,
            2.9158e-05,
            2.9413e-05,
            2.9671e-05,
            2.9932e-05,
            3.0197e-05,
            3.0466e-05,
            3.0738e-05,
            3.1014e-05,
            3.1293e-05,
            3.1577e-05,
            3.1864e-05,
            3.2155e-05,
            3.245e-05,
            3.2749e-05,
            3.3053e-05,
            3.336e-05,
            3.3672e-05,
            3.3989e-05,
            3.4309e-05,
            3.4635e-05,
            3.4965e-05,
            3.5299e-05,
            3.5639e-05,
            3.5983e-05,
            3.6333e-05,
            3.6688e-05,
            3.7047e-05,
            3.7413e-05,
            3.7783e-05,
            3.8159e-05,
            3.8541e-05,
            3.8929e-05,
            3.9322e-05,
            3.9722e-05,
            4.0127e-05,
            4.0539e-05,
            4.0957e-05,
            4.1382e-05,
            4.1813e-05,
            4.2251e-05,
            4.2696e-05,
            4.3148e-05,
            4.3607e-05,
            4.4074e-05,
            4.4548e-05,
            4.503e-05,
            4.552e-05,
            4.6017e-05,
            4.6523e-05,
            4.7038e-05,
            4.7561e-05,
            4.8092e-05,
            4.8633e-05,
            4.9183e-05,
            4.9742e-05,
            5.0311e-05,
            5.0889e-05,
            5.1478e-05,
            5.2077e-05,
            5.2687e-05,
            5.3307e-05,
            5.3938e-05,
            5.458e-05,
            5.5235e-05,
            5.59e-05,
            5.6578e-05,
            5.7269e-05,
            5.7972e-05,
            5.8688e-05,
            5.9417e-05,
            6.0161e-05,
            6.0918e-05,
            6.1689e-05,
            6.2476e-05,
            6.3277e-05,
            6.4094e-05,
            6.4927e-05,
            6.5776e-05,
            6.6642e-05,
            6.7526e-05,
            6.8427e-05,
            6.9346e-05,
            7.0284e-05,
            7.124e-05,
            7.2217e-05,
            7.3214e-05,
            7.4231e-05,
            7.527e-05,
            7.6331e-05,
            7.7415e-05,
            7.8521e-05,
            7.9652e-05,
            8.0807e-05,
            8.1987e-05,
            8.3194e-05,
            8.4427e-05,
            8.5689e-05,
            8.6978e-05,
            8.8297e-05,
            8.9646e-05,
            9.1026e-05,
            9.2439e-05,
            9.3884e-05,
            9.5364e-05,
            9.6878e-05,
            9.843e-05,
            0.00010002,
            0.00010164,
            0.00010331,
            0.00010502,
            0.00010677,
            0.00010857,
            0.00011041,
            0.0001123,
            0.00011424,
            0.00011623,
            0.00011827,
            0.00012036,
            0.00012251,
            0.00012472,
            0.00012699,
            0.00012932,
            0.00013172,
            0.00013419,
            0.00013672,
            0.00013933,
            0.00014201,
            0.00014477,
            0.00014761,
            0.00015054,
            0.00015355,
            0.00015666,
            0.00015986,
            0.00016315,
            0.00016656,
            0.00017007,
            0.00017369,
            0.00017743,
            0.00018129,
            0.00018528,
            0.0001894,
            0.00019366,
            0.00019807,
            0.00020263,
            0.00020734,
            0.00021223,
            0.00021729,
            0.00022253,
            0.00022796,
            0.0002336,
            0.00023945,
            0.00024552,
            0.00025182,
            0.00025837,
            0.00026518,
            0.00027226,
            0.00027962,
            0.00028729,
            0.00029529,
            0.00030362,
            0.0003123,
            0.00032137,
            0.00033083,
            0.00034072,
            0.00035106,
            0.00036188,
            0.00037321,
            0.00038507,
            0.00039751,
            0.00041057,
            0.00042427,
            0.00043868,
            0.00045383,
            0.00046978,
            0.00048659,
            0.00050431,
            0.00052303,
            0.0005428,
            0.00056371,
            0.00058586,
            0.00060934,
            0.00063426,
            0.00066074,
            0.00068891,
            0.00071893,
            0.00075095,
            0.00078515,
            0.00082175,
            0.00086097,
            0.00090307,
            0.00094833,
            0.00099708,
            0.0010497,
            0.0011066,
            0.0011682,
            0.0012351,
            0.001308,
            0.0013875,
            0.0014744,
            0.0015699,
            0.0016748,
            0.0017907,
            0.001919,
            0.0020617,
            0.0022208,
            0.0023991,
            0.0025998,
            0.0028268
          ],
          [
            10.358,
            10.143,
            10.243,
            10.333,
            10.563,
            10.687,
            10.885,
            10.817,
            10.573,
            10.426,
            10.161,
            10.495,
            10.84,
            11.196,
            11.582,
            11.436,
            11.385,
            11.298,
            11.152,
            11.132,
            11.041,
            10.868,
            10.849,
            10.807,
            10.674,
            10.542,
            10.438,
            10.474,
            10.77,
            11.267,
            11.493,
            11.601,
            11.455,
            11.195,
            11.202,
            11.039,
            10.832,
            10.589,
            10.205,
            9.976,
            10.101,
            10.294,
            10.505,
            10.732,
            10.664,
            10.574,
            10.641,
            10.819,
            10.86,
            10.894,
            10.854,
            10.558,
            10.691,
            10.895,
            11.064,
            11.394,
            11.199,
            10.783,
            10.271,
            9.8521,
            9.8273,
            10.029,
            10.417,
            10.767,
            11.019,
            11.149,
            11.268,
            11.199,
            10.965,
            10.775,
            10.513,
            10.383,
            10.473,
            10.641,
            10.724,
            11.026,
            11.201,
            11.166,
            11.134,
            10.755,
            10.45,
            10.261,
            10.259,
            10.374,
            10.434,
            10.494,
            10.487,
            10.429,
            10.391,
            10.331,
            10.076,
            9.9742,
            10.006,
            10.174,
            10.653,
            10.748,
            10.632,
            10.307,
            9.9049,
            10.073,
            10.178,
            10.274,
            10.236,
            9.8513,
            9.5149,
            9.5346,
            9.6023,
            9.707,
            10.091,
            9.9307,
            9.8622,
            9.8443,
            9.6567,
            9.7509,
            9.76,
            9.7135,
            9.5762,
            9.2689,
            9.0544,
            8.9296,
            8.8182,
            9.2219,
            9.4515,
            9.354,
            9.3465,
            8.8973,
            8.6459,
            8.9545,
            9.2928,
            9.7218,
            10.031,
            9.9887,
            9.8865,
            9.6868,
            9.5113,
            9.4385,
            9.4846,
            9.7439,
            10.125,
            10.303,
            10.07,
            9.7447,
            9.2466,
            8.8555,
            8.6908,
            8.499,
            8.5084,
            8.5072,
            8.6869,
            8.9361,
            9.0441,
            9.3787,
            9.4635,
            9.439,
            9.3439,
            8.991,
            8.8645,
            8.8535,
            9.0451,
            9.3217,
            9.5522,
            9.77,
            9.7171,
            9.603,
            9.464,
            9.0865,
            8.9568,
            8.8394,
            8.627,
            8.7309,
            8.7168,
            8.8191,
            8.985,
            9.0246,
            9.1216,
            9.0367,
            8.9724,
            8.9603,
            9.006,
            9.3538,
            9.694,
            9.8231,
            9.8406,
            9.5158,
            9.1793,
            9.1373,
            9.0602,
            9.1104,
            9.155,
            9.0618,
            9.0011,
            8.9139,
            8.8998,
            8.9348,
            8.9727,
            9.0701,
            9.094,
            8.9671,
            8.9445,
            8.9379,
            8.8492,
            9.0137,
            8.9763,
            8.9488,
            9.0497,
            8.9092,
            8.9346,
            8.8209,
            8.7196,
            8.7558,
            8.7408,
            8.8243,
            8.8754,
            8.9046,
            9.006,
            9.0962,
            9.1849,
            9.0902,
            8.9296,
            8.8012,
            8.6712,
            8.776,
            8.8494,
            8.8811,
            8.9241,
            8.964,
            9.049,
            9.1677,
            9.2765,
            9.2378,
            9.2907,
            9.2875,
            9.1613,
            9.0603,
            8.8185,
            8.6539,
            8.6908,
            8.8145,
            8.9258,
            9.0193,
            9.0181,
            8.9571,
            9.0,
            9.0055,
            8.9666,
            9.0036,
            9.0581,
            9.1145,
            9.2584,
            9.3038,
            9.3378,
            9.4407,
            9.5614,
            9.6802,
            9.5789,
            9.3786,
            9.0529,
            8.8368,
            8.8736,
            8.8424,
            9.0203,
            9.0202,
            8.9898,
            9.175,
            9.082,
            9.1092,
            8.9796,
            8.7224,
            8.6499,
            8.5701,
            8.627,
            8.7581,
            8.7946,
            8.868,
            8.7816,
            8.6275,
            8.5631,
            8.5133,
            8.584,
            8.7119,
            8.8194,
            8.8287,
            8.7853,
            8.72,
            8.7111,
            8.6786,
            8.6646,
            8.5816,
            8.3029,
            8.1383,
            8.0679,
            8.0573,
            8.2539,
            8.4493,
            8.6026,
            8.7426,
            8.7948,
            8.773,
            8.6586,
            8.5778,
            8.4167,
            8.3369,
            8.3877,
            8.4225,
            8.5271,
            8.4869,
            8.3631,
            8.2786,
            8.3269,
            8.5915,
            8.9578,
            9.3168,
            9.4905,
            9.4259,
            9.2648,
            9.0041,
            8.7969,
            8.7082,
            8.5567,
            8.4834,
            8.4325,
            8.5231,
            8.6516,
            8.8085,
            8.9362,
            8.9093,
            9.0266,
            9.0003,
            8.911,
            8.7143,
            8.4459,
            8.3486,
            8.3534,
            8.5321,
            8.6599,
            8.8205,
            9.006,
            9.0781,
            9.0965,
            8.962,
            8.7464,
            8.5137,
            8.3572,
            8.2824,
            8.3174,
            8.4848,
            8.6489,
            8.5898,
            8.4703,
            8.2396,
            8.0596,
            8.1658,
            8.1831,
            8.2299,
            8.2608,
            8.22,
            8.2919,
            8.3912,
            8.4594,
            8.4398,
            8.4313,
            8.4727,
            8.6127,
            8.896,
            9.1777,
            9.4273,
            9.4929,
            9.5396,
            9.2549,
            8.9363,
            8.7313,
            8.4763,
            8.6726,
            8.7803,
            8.7901,
            8.71,
            8.4671,
            8.3381,
            8.3441,
            8.4485,
            8.5192,
            8.5895,
            8.6113,
            8.6078,
            8.6312,
            8.6988,
            8.6407,
            8.536,
            8.3814,
            8.1946,
            8.1449,
            8.1778,
            8.1878,
            8.1603,
            8.0721,
            7.9921,
            8.0438,
            8.0721,
            8.1732,
            8.179,
            8.115,
            8.0986,
            8.0722,
            8.133,
            8.1022,
            8.0524,
            7.9952,
            7.8571,
            7.8913,
            7.9681,
            8.1365,
            8.4206,
            8.7059,
            8.9578,
            8.9994,
            9.0248,
            8.9012,
            8.826,
            8.8218,
            8.6953,
            8.6416,
            8.5589,
            8.5245,
            8.5515,
            8.5768,
            8.4773,
            8.2477,
            8.0467,
            7.8073,
            7.7051,
            7.7551,
            7.7762,
            7.8796,
            8.027,
            8.1491,
            8.2869,
            8.4779,
            8.616,
            8.705,
            8.832,
            8.7642,
            8.6525,
            8.5462,
            8.3578,
            8.19,
            7.9696,
            7.798,
            7.7088,
            7.6828,
            7.7262,
            7.8415,
            7.8722,
            7.8942,
            7.9567,
            7.8556,
            7.8347,
            7.8777,
            7.925,
            8.0901,
            8.2651,
            8.3584,
            8.3393,
            8.2767,
            8.2052,
            8.2873,
            8.5877,
            8.8425,
            9.0938,
            9.1646,
            8.9771,
            8.7829,
            8.4848,
            8.2155,
            8.0816,
            8.0568,
            8.118,
            8.1831,
            8.2507,
            8.2563,
            8.1898,
            8.0844,
            7.9309,
            7.8002,
            7.8167,
            8.0162,
            8.2333,
            8.4045,
            8.5047,
            8.5121,
            8.6149,
            8.7146,
            8.853,
            8.8933,
            8.704,
            8.549,
            8.2353,
            8.0221,
            7.9367,
            7.8517,
            7.9312,
            7.8783,
            7.8828,
            7.91,
            7.9305,
            8.1033,
            8.2289,
            8.355,
            8.3584,
            8.3361,
            8.3221,
            8.2994,
            8.3036,
            8.2911,
            8.2689,
            8.237,
            8.3201,
            8.4061,
            8.4307,
            8.3662,
            8.2598,
            8.1031,
            8.0513,
            8.1013,
            8.1803,
            8.2894,
            8.4136,
            8.5674,
            8.6259,
            8.7022,
            8.6187,
            8.5287,
            8.3915,
            8.283,
            8.2172,
            8.0465,
            8.0337,
            7.9143,
            7.8871,
            7.8799,
            7.8267,
            7.8611,
            7.9033,
            7.9572,
            7.9152,
            7.8608,
            7.7442,
            7.7313,
            7.8769,
            8.0236,
            8.1412,
            8.1735,
            8.1168,
            8.0415,
            8.039,
            8.0827,
            8.0446,
            8.0084,
            8.0043,
            7.9673,
            8.0064,
            8.0947,
            8.0849,
            8.0884,
            8.1664,
            8.1489,
            8.1746,
            8.1473,
            8.0081,
            8.0029,
            7.9753,
            7.9933,
            7.972,
            7.8373,
            7.7591,
            7.7339,
            7.8453,
            8.018,
            8.0338,
            8.008,
            7.9213,
            7.7994,
            7.9269,
            7.947,
            7.9848,
            8.0622,
            7.9052,
            7.8656,
            7.7766,
            7.6662,
            7.6802,
            7.6519,
            7.7103,
            7.7715,
            7.8564,
            8.0121,
            8.1267,
            8.2429,
            8.3472,
            8.3747,
            8.3892,
            8.413,
            8.3357,
            8.3289,
            8.3668,
            8.3264,
            8.364,
            8.3005,
            8.1428,
            8.084,
            7.9796,
            7.9151,
            7.8548,
            7.7133,
            7.6466,
            7.6111,
            7.6584,
            7.8062,
            7.8845,
            7.9254,
            7.9209,
            7.8663,
            7.8161,
            7.7627,
            7.7786,
            7.7777,
            7.8608,
            7.9237,
            7.8828,
            7.8566,
            7.7214,
            7.6225,
            7.5674,
            7.5231,
            7.5934,
            7.8068,
            8.0342,
            8.2151,
            8.2637,
            8.051,
            7.7969,
            7.6424,
            7.541,
            7.6233,
            7.6659,
            7.6554,
            7.7311,
            7.6803,
            7.8159,
            7.8598,
            7.8366,
            7.8821,
            7.7712,
            7.7641,
            7.6849,
            7.5289,
            7.3757,
            7.213,
            7.1287,
            7.2335,
            7.3914,
            7.5816,
            7.7268,
            7.7056,
            7.7103,
            7.6495,
            7.6432,
            7.7216,
            7.8065,
            7.942,
            8.034,
            8.0967,
            8.0191,
            7.9129,
            7.8613,
            7.7704,
            7.8517,
            7.9898,
            8.089,
            8.147,
            8.1409,
            8.1172,
            8.0641,
            8.1309,
            8.1727,
            8.0942,
            8.0842,
            8.0233,
            7.9977,
            8.0158,
            7.9552,
            7.8479,
            7.6141,
            7.5134,
            7.458,
            7.4023,
            7.526,
            7.5304,
            7.5589,
            7.722,
            7.8081,
            7.9609,
            8.0177,
            7.9825,
            7.8842,
            7.7148,
            7.683,
            7.6175,
            7.6614,
            7.8219,
            7.9436,
            8.0922,
            8.1318,
            8.0708,
            7.9287,
            7.757,
            7.7153,
            7.6277,
            7.6065,
            7.6206,
            7.5232,
            7.5542,
            7.5645,
            7.6714,
            7.7856,
            7.851,
            7.9181,
            7.8357,
            7.8109,
            7.7181,
            7.5944,
            7.4938,
            7.3654,
            7.3174,
            7.3187,
            7.3786,
            7.3899,
            7.4115,
            7.4426,
            7.4696,
            7.5455,
            7.5245,
            7.4839,
            7.3871,
            7.3652,
            7.4383,
            7.5331,
            7.6556,
            7.693,
            7.6518,
            7.5692,
            7.5023,
            7.4797,
            7.5266,
            7.6044,
            7.6967,
            7.7356,
            7.7723,
            7.7785,
            7.7412,
            7.7223,
            7.6301,
            7.5099,
            7.4443,
            7.4002,
            7.4099,
            7.5269,
            7.5862,
            7.672,
            7.7363,
            7.6862,
            7.6398,
            7.5229,
            7.3637,
            7.2341,
            7.1435,
            7.0422,
            7.0765,
            7.1415,
            7.2,
            7.3554,
            7.3724,
            7.3866,
            7.4407,
            7.4154,
            7.5059,
            7.6107,
            7.5459,
            7.4332,
            7.2381,
            7.0136,
            6.9231,
            6.9198,
            6.9725,
            7.0457,
            7.0632,
            7.0928,
            7.1751,
            7.2311,
            7.2854,
            7.258,
            7.0533,
            6.8848,
            6.858,
            6.9255,
            7.1022,
            7.2638,
            7.3468,
            7.4304,
            7.5293,
            7.5899,
            7.5544,
            7.4251,
            7.2154,
            7.0903,
            7.0602,
            7.1142,
            7.2017,
            7.244,
            7.2536,
            7.2155,
            7.2374,
            7.2648,
            7.3258,
            7.3942,
            7.3942,
            7.3829,
            7.2948,
            7.2555,
            7.2757,
            7.2933,
            7.4366,
            7.4798,
            7.4563,
            7.426,
            7.3124,
            7.2978,
            7.3546,
            7.4576,
            7.5045,
            7.4609,
            7.2947,
            7.1483,
            7.0568,
            6.9872,
            7.0278,
            6.8975,
            6.8295,
            6.7976,
            6.7453,
            6.8734,
            6.938,
            7.0605,
            7.2344,
            7.3702,
            7.4831,
            7.399,
            7.2379,
            7.0799,
            7.0078,
            7.1563,
            7.2151,
            7.1865,
            7.0291,
            6.7555,
            6.6843,
            6.7367,
            6.8529,
            6.9562,
            6.8885,
            6.6701,
            6.4753,
            6.2912,
            6.2596,
            6.4069,
            6.5452,
            6.7081,
            6.7178,
            6.5626,
            6.3316,
            6.0822,
            5.9918,
            6.0187,
            6.1979,
            6.4597,
            6.6587,
            6.7674,
            6.8038,
            6.8017,
            6.7284,
            6.7067,
            6.6441,
            6.569,
            6.4795,
            6.3934,
            6.3642,
            6.3717,
            6.5214,
            6.5917,
            6.6496,
            6.5673,
            6.3569,
            6.2839,
            6.2124,
            6.2146,
            6.2669,
            6.2029,
            6.0964,
            6.072,
            6.0507,
            6.1643,
            6.2906,
            6.387,
            6.503,
            6.4857,
            6.5057,
            6.4384,
            6.2966,
            6.2337,
            6.1745,
            6.1351,
            6.1369,
            6.0908,
            6.0625,
            6.0948,
            6.2142,
            6.3021,
            6.3473,
            6.3409,
            6.1878,
            6.0025,
            5.7686,
            5.5527,
            5.3595,
            5.3432,
            5.3784,
            5.4843,
            5.7388,
            5.901,
            6.1218,
            6.1911,
            6.1674,
            6.0731,
            5.82,
            5.6521,
            5.3843,
            5.1877,
            5.1323,
            5.0368,
            4.9997,
            4.9709,
            4.8846,
            4.8641,
            4.9187,
            4.9192,
            4.9233,
            4.9407,
            4.8781,
            4.8763,
            4.8666,
            4.7348,
            4.5929,
            4.3186,
            4.0634,
            3.8994,
            3.7801,
            3.987,
            4.3965,
            4.9483,
            5.6809,
            6.0759,
            6.1458,
            6.0334,
            5.6465,
            5.2932,
            4.9831,
            4.5865,
            4.2413,
            3.9721,
            3.7854,
            3.7369,
            3.7365,
            3.7445,
            3.731,
            3.6568,
            3.5862,
            3.5186,
            3.4697,
            3.5882,
            3.9616,
            4.6294,
            5.6553,
            6.9117,
            8.1053,
            9.062,
            9.4288,
            9.0815
          ]
        ]
      }
    },
    "003": {
      "common": null,
      "data": {
        "heads": [
          "EN",
          "DATA"
        ],
        "units": [
          "MEV",
          "B"
        ],
        "data": [
          [
            1.4924e-06,
            1.4953e-06,
            1.4983e-06,
            1.5012e-06,
            1.5042e-06,
            1.5072e-06,
            1.5101e-06,
            1.5131e-06,
            1.5161e-06,
            1.5191e-06,
            1.5221e-06,
            1.5252e-06,
            1.5282e-06,
            1.5312e-06,
            1.5343e-06,
            1.5373e-06,
            1.5404e-06,
            1.5435e-06,
            1.5466e-06,
            1.5497e-06,
            1.5528e-06,
            1.5559e-06,
            1.559e-06,
            1.5622e-06,
            1.5653e-06,
            1.5684e-06,
            1.5716e-06,
            1.5748e-06,
            1.578e-06,
            1.5812e-06,
            1.5844e-06,
            1.5876e-06,
            1.5908e-06,
            1.594e-06,
            1.5973e-06,
            1.6005e-06,
            1.6038e-06,
            1.607e-06,
            1.6103e-06,
            1.6136e-06,
            1.6169e-06,
            1.6202e-06,
            1.6235e-06,
            1.6269e-06,
            1.6302e-06,
            1.6336e-06,
            1.6369e-06,
            1.6403e-06,
            1.6437e-06,
            1.6471e-06,
            1.6505e-06,
            1.6539e-06,
            1.6573e-06,
            1.6607e-06,
            1.6642e-06,
            1.6677e-06,
            1.6711e-06,
            1.6746e-06,
            1.6781e-06,
            1.6816e-06,
            1.6851e-06,
            1.6886e-06,
            1.6922e-06,
            1.6957e-06,
            1.6992e-06,
            1.7028e-06,
            1.7064e-06,
            1.71e-06,
            1.7136e-06,
            1.7172e-06,
            1.7208e-06,
            1.7245e-06,
            1.7281e-06,
            1.7318e-06,
            1.7354e-06,
            1.7391e-06,
            1.7428e-06,
            1.7465e-06,
            1.7502e-06,
            1.7539e-06,
            1.7577e-06,
            1.7614e-06,
            1.7652e-06,
            1.769e-06,
            1.7728e-06,
            1.7766e-06,
            1.7804e-06,
            1.7842e-06,
            1.788e-06,
            1.7919e-06,
            1.7958e-06,
            1.7996e-06,
            1.8035e-06,
            1.8074e-06,
            1.8113e-06,
            1.8153e-06,
            1.8192e-06,
            1.8232e-06,
            1.8271e-06,
            1.8311e-06,
            1.8351e-06,
            1.8391e-06,
            1.8431e-06,
            1.8471e-06,
            1.8512e-06,
            1.8552e-06,
            1.8593e-06,
            1.8634e-06,
            1.8675e-06,
            1.8716e-06,
            1.8757e-06,
            1.8798e-06,
            1.884e-06,
            1.8882e-06,
            1.8923e-06,
            1.8965e-06,
            1.9007e-06,
            1.9049e-06,
            1.9092e-06,
            1.9134e-06,
            1.9177e-06,
            1.922e-06,
            1.9263e-06,
            1.9306e-06,
            1.9349e-06,
            1.9392e-06,
            1.9436e-06,
            1.9479e-06,
            1.9523e-06,
            1.9567e-06,
            1.9611e-06,
            1.9655e-06,
            1.97e-06,
            1.9744e-06,
            1.9789e-06,
            1.9834e-06,
            1.9879e-06,
            1.9924e-06,
            1.9969e-06,
            2.0015e-06,
            2.006e-06,
            2.0106e-06,
            2.0152e-06,
            2.0198e-06,
            2.0244e-06,
            2.029e-06,
            2.0337e-06,
            2.0384e-06,
            2.0431e-06,
            2.0478e-06,
            2.0525e-06,
            2.0572e-06,
            2.062e-06,
            2.0667e-06,
            2.0715e-06,
            2.0763e-06,
            2.0811e-06,
            2.086e-06,
            2.0908e-06,
            2.0957e-06,
            2.1006e-06,
            2.1055e-06,
            2.1104e-06,
            2.1154e-06,
            2.1203e-06,
            2.1253e-06,
            2.1303e-06,
            2.1353e-06,
            2.1403e-06,
            2.1453e-06,
            2.1504e-06,
            2.1555e-06,
            2.1606e-06,
            2.1657e-06,
            2.1708e-06,
            2.176e-06,
            2.1811e-06,
            2.1863e-06,
            2.1915e-06,
            2.1968e-06,
            2.202e-06,
            2.2073e-06,
            2.2125e-06,
            2.2178e-06,
            2.2232e-06,
            2.2285e-06,
            2.2339e-06,
            2.2392e-06,
            2.2446e-06,
            2.2501e-06,
            2.2555e-06,
            2.2609e-06,
            2.2664e-06,
            2.2719e-06,
            2.2774e-06,
            2.283e-06,
            2.2885e-06,
            2.2941e-06,
            2.2997e-06,
            2.3053e-06,
            2.3109e-06,
            2.3166e-06,
            2.3223e-06,
            2.328e-06,
            2.3337e-06,
            2.3394e-06,
            2.3452e-06,
            2.351e-06,
            2.3568e-06,
            2.3626e-06,
            2.3685e-06,
            2.3743e-06,
            2.3802e-06,
            2.3861e-06,
            2.3921e-06,
            2.398e-06,
            2.404e-06,
            2.41e-06,
            2.416e-06,
            2.4221e-06,
            2.4282e-06,
            2.4343e-06,
            2.4404e-06,
            2.4465e-06,
            2.4527e-06,
            2.4589e-06,
            2.4651e-06,
            2.4713e-06,
            2.4776e-06,
            2.4839e-06,
            2.4902e-06,
            2.4965e-06,
            2.5028e-06,
            2.5092e-06,
            2.5156e-06,
            2.522e-06,
            2.5285e-06,
            2.535e-06,
            2.5415e-06,
            2.548e-06,
            2.5546e-06,
            2.5611e-06,
            2.5677e-06,
            2.5744e-06,
            2.581e-06,
            2.5877e-06,
            2.5944e-06,
            2.6011e-06,
            2.6079e-06,
            2.6147e-06,
            2.6215e-06,
            2.6283e-06,
            2.6352e-06,
            2.6421e-06,
            2.649e-06,
            2.6559e-06,
            2.6629e-06,
            2.6699e-06,
            2.6769e-06,
            2.684e-06,
            2.6911e-06,
            2.6982e-06,
            2.7053e-06,
            2.7125e-06,
            2.7197e-06,
            2.7269e-06,
            2.7342e-06,
            2.7414e-06,
            2.7487e-06,
            2.7561e-06,
            2.7635e-06,
            2.7709e-06,
            2.7783e-06,
            2.7857e-06,
            2.7932e-06,
            2.8008e-06,
            2.8083e-06,
            2.8159e-06,
            2.8235e-06,
            2.8311e-06,
            2.8388e-06,
            2.8465e-06,
            2.8542e-06,
            2.862e-06,
            2.8698e-06,
            2.8777e-06,
            2.8855e-06,
            2.8934e-06,
            2.9013e-06,
            2.9093e-06,
            2.9173e-06,
            2.9253e-06,
            2.9334e-06,
            2.9415e-06,
            2.9496e-06,
            2.9578e-06,
            2.966e-06,
            2.9742e-06,
            2.9825e-06,
            2.9908e-06,
            2.9991e-06,
            3.0074e-06,
            3.0159e-06,
            3.0243e-06,
            3.0328e-06,
            3.0413e-06,
            3.0498e-06,
            3.0584e-06,
            3.067e-06,
            3.0757e-06,
            3.0844e-06,
            3.0931e-06,
            3.1018e-06,
            3.1106e-06,
            3.1195e-06,
            3.1284e-06,
            3.1373e-06,
            3.1462e-06,
            3.1552e-06,
            3.1642e-06,
            3.1733e-06,
            3.1824e-06,
            3.1916e-06,
            3.2007e-06,
            3.21e-06,
            3.2192e-06,
            3.2285e-06,
            3.2379e-06,
            3.2473e-06,
            3.2567e-06,
            3.2662e-06,
            3.2757e-06,
            3.2852e-06,
            3.2948e-06,
            3.3045e-06,
            3.3141e-06,
            3.3239e-06,
            3.3336e-06,
            3.3434e-06,
            3.3533e-06,
            3.3632e-06,
            3.3731e-06,
            3.3831e-06,
            3.3931e-06,
            3.4032e-06,
            3.4133e-06,
            3.4235e-06,
            3.4337e-06,
            3.4439e-06,
            3.4542e-06,
            3.4646e-06,
            3.475e-06,
            3.4854e-06,
            3.4959e-06,
            3.5064e-06,
            3.517e-06,
            3.5276e-06,
            3.5383e-06,
            3.549e-06,
            3.5598e-06,
            3.5706e-06,
            3.5815e-06,
            3.5924e-06,
            3.6034e-06,
            3.6144e-06,
            3.6255e-06,
            3.6366e-06,
            3.6477e-06,
            3.659e-06,
            3.6702e-06,
            3.6816e-06,
            3.693e-06,
            3.7044e-06,
            3.7159e-06,
            3.7274e-06,
            3.739e-06,
            3.7507e-06,
            3.7624e-06,
            3.7741e-06,
            3.7859e-06,
            3.7978e-06,
            3.8098e-06,
            3.8217e-06,
            3.8338e-06,
            3.8459e-06,
            3.858e-06,
            3.8702e-06,
            3.8825e-06,
            3.8948e-06,
            3.9072e-06,
            3.9197e-06,
            3.9322e-06,
            3.9447e-06,
            3.9574e-06,
            3.97e-06,
            3.9828e-06,
            3.9956e-06,
            4.0085e-06,
            4.0214e-06,
            4.0344e-06,
            4.0475e-06,
            4.0606e-06,
            4.0738e-06,
            4.087e-06,
            4.1003e-06,
            4.1137e-06,
            4.1272e-06,
            4.1407e-06,
            4.1542e-06,
            4.1679e-06,
            4.1816e-06,
            4.1954e-06,
            4.2092e-06,
            4.2231e-06,
            4.2371e-06,
            4.2512e-06,
            4.2653e-06,
            4.2795e-06,
            4.2938e-06,
            4.3081e-06,
            4.3225e-06,
            4.337e-06,
            4.3516e-06,
            4.3662e-06,
            4.3809e-06,
            4.3957e-06,
            4.4105e-06,
            4.4255e-06,
            4.4405e-06,
            4.4555e-06,
            4.4707e-06,
            4.4859e-06,
            4.5012e-06,
            4.5166e-06,
            4.5321e-06,
            4.5477e-06,
            4.5633e-06,
            4.579e-06,
            4.5948e-06,
            4.6107e-06,
            4.6266e-06,
            4.6427e-06,
            4.6588e-06,
            4.675e-06,
            4.6913e-06,
            4.7077e-06,
            4.7241e-06,
            4.7407e-06,
            4.7573e-06,
            4.774e-06,
            4.7909e-06,
            4.8077e-06,
            4.8247e-06,
            4.8418e-06,
            4.859e-06,
            4.8763e-06,
            4.8936e-06,
            4.9111e-06,
            4.9286e-06,
            4.9463e-06,
            4.964e-06,
            4.9818e-06,
            4.9997e-06,
            5.0178e-06,
            5.0359e-06,
            5.0541e-06,
            5.0724e-06,
            5.0908e-06,
            5.1093e-06,
            5.1279e-06,
            5.1467e-06,
            5.1655e-06,
            5.1844e-06,
            5.2034e-06,
            5.2226e-06,
            5.2418e-06,
            5.2612e-06,
            5.2806e-06,
            5.3002e-06,
            5.3199e-06,
            5.3396e-06,
            5.3595e-06,
            5.3795e-06,
            5.3996e-06,
            5.4199e-06,
            5.4402e-06,
            5.4607e-06,
            5.4812e-06,
            5.5019e-06,
            5.5227e-06,
            5.5436e-06,
            5.5647e-06,
            5.5858e-06,
            5.6071e-06,
            5.6285e-06,
            5.6501e-06,
            5.6717e-06,
            5.6935e-06,
            5.7154e-06,
            5.7374e-06,
            5.7596e-06,
            5.7819e-06,
            5.8043e-06,
            5.8268e-06,
            5.8495e-06,
            5.8723e-06,
            5.8953e-06,
            5.9183e-06,
            5.9416e-06,
            5.9649e-06,
            5.9884e-06,
            6.012e-06,
            6.0358e-06,
            6.0597e-06,
            6.0837e-06,
            6.1079e-06,
            6.1323e-06,
            6.1568e-06,
            6.1814e-06,
            6.2062e-06,
            6.2311e-06,
            6.2562e-06,
            6.2814e-06,
            6.3068e-06,
            6.3323e-06,
            6.358e-06,
            6.3839e-06,
            6.4099e-06,
            6.4361e-06,
            6.4624e-06,
            6.4889e-06,
            6.5155e-06,
            6.5424e-06,
            6.5693e-06,
            6.5965e-06,
            6.6238e-06,
            6.6513e-06,
            6.679e-06,
            6.7068e-06,
            6.7348e-06,
            6.763e-06,
            6.7914e-06,
            6.8199e-06,
            6.8486e-06,
            6.8775e-06,
            6.9066e-06,
            6.9359e-06,
            6.9653e-06,
            6.995e-06,
            7.0248e-06,
            7.0548e-06,
            7.0851e-06,
            7.1155e-06,
            7.1461e-06,
            7.1769e-06,
            7.2079e-06,
            7.2391e-06,
            7.2705e-06,
            7.3022e-06,
            7.334e-06,
            7.366e-06,
            7.3983e-06,
            7.4307e-06,
            7.4634e-06,
            7.4963e-06,
            7.5294e-06,
            7.5627e-06,
            7.5962e-06,
            7.63e-06,
            7.664e-06,
            7.6982e-06,
            7.7327e-06,
            7.7674e-06,
            7.8023e-06,
            7.8374e-06,
            7.8728e-06,
            7.9084e-06,
            7.9443e-06,
            7.9804e-06,
            8.0168e-06,
            8.0534e-06,
            8.0903e-06,
            8.1274e-06,
            8.1648e-06,
            8.2024e-06,
            8.2403e-06,
            8.2785e-06,
            8.3169e-06,
            8.3556e-06,
            8.3945e-06,
            8.4338e-06,
            8.4733e-06,
            8.5131e-06,
            8.5532e-06,
            8.5935e-06,
            8.6341e-06,
            8.6751e-06,
            8.7163e-06,
            8.7578e-06,
            8.7996e-06,
            8.8417e-06,
            8.8842e-06,
            8.9269e-06,
            8.9699e-06,
            9.0133e-06,
            9.0569e-06,
            9.1009e-06,
            9.1452e-06,
            9.1898e-06,
            9.2348e-06,
            9.28e-06,
            9.3257e-06,
            9.3716e-06,
            9.4179e-06,
            9.4645e-06,
            9.5115e-06,
            9.5588e-06,
            9.6065e-06,
            9.6546e-06,
            9.703e-06,
            9.7518e-06,
            9.8009e-06,
            9.8504e-06,
            9.9003e-06,
            9.9506e-06,
            1.0001e-05,
            1.0052e-05,
            1.0104e-05,
            1.0155e-05,
            1.0208e-05,
            1.026e-05,
            1.0313e-05,
            1.0367e-05,
            1.0421e-05,
            1.0475e-05,
            1.053e-05,
            1.0585e-05,
            1.064e-05,
            1.0696e-05,
            1.0753e-05,
            1.081e-05,
            1.0867e-05,
            1.0925e-05,
            1.0983e-05,
            1.1042e-05,
            1.1101e-05,
            1.1161e-05,
            1.1221e-05,
            1.1282e-05,
            1.1343e-05,
            1.1405e-05,
            1.1467e-05,
            1.1529e-05,
            1.1593e-05,
            1.1656e-05,
            1.1721e-05,
            1.1785e-05,
            1.1851e-05,
            1.1916e-05,
            1.1983e-05,
            1.205e-05,
            1.2117e-05,
            1.2186e-05,
            1.2254e-05,
            1.2323e-05,
            1.2393e-05,
            1.2464e-05,
            1.2535e-05,
            1.2606e-05,
            1.2679e-05,
            1.2752e-05,
            1.2825e-05,
            1.2899e-05,
            1.2974e-05,
            1.3049e-05,
            1.3126e-05,
            1.3202e-05,
            1.328e-05,
            1.3358e-05,
            1.3437e-05,
            1.3516e-05,
            1.3597e-05,
            1.3677e-05,
            1.3759e-05,
            1.3842e-05,
            1.3925e-05,
            1.4009e-05,
            1.4093e-05,
            1.4179e-05,
            1.4265e-05,
            1.4352e-05,
            1.444e-05,
            1.4528e-05,
            1.4618e-05,
            1.4708e-05,
            1.4799e-05,
            1.4891e-05,
            1.4984e-05,
            1.5078e-05,
            1.5172e-05,
            1.5268e-05,
            1.5364e-05,
            1.5461e-05,
            1.556e-05,
            1.5659e-05,
            1.5759e-05,
            1.586e-05,
            1.5962e-05,
            1.6065e-05,
            1.6169e-05,
            1.6274e-05,
            1.638e-05,
            1.6487e-05,
            1.6595e-05,
            1.6704e-05,
            1.6815e-05,
            1.6926e-05,
            1.7039e-05,
            1.7152e-05,
            1.7267e-05,
            1.7383e-05,
            1.75e-05,
            1.7618e-05,
            1.7738e-05,
            1.7858e-05,
            1.798e-05,
            1.8104e-05,
            1.8228e-05,
            1.8354e-05,
            1.8481e-05,
            1.8609e-05,
            1.8739e-05,
            1.887e-05,
            1.9003e-05,
            1.9136e-05,
            1.9272e-05,
            1.9408e-05,
            1.9547e-05,
            1.9686e-05,
            1.9827e-05,
            1.997e-05,
            2.0114e-05,
            2.026e-05,
            2.0408e-05,
            2.0557e-05,
            2.0707e-05,
            2.086e-05,
            2.1014e-05,
            2.1169e-05,
            2.1327e-05,
            2.1486e-05,
            2.1647e-05,
            2.181e-05,
            2.1974e-05,
            2.2141e-05,
            2.2309e-05,
            2.248e-05,
            2.2652e-05,
            2.2826e-05,
            2.3003e-05,
            2.3181e-05,
            2.3362e-05,
            2.3544e-05,
            2.3729e-05,
            2.3916e-05,
            2.4105e-05,
            2.4296e-05,
            2.449e-05,
            2.4686e-05,
            2.4884e-05,
            2.5085e-05,
            2.5288e-05,
            2.5494e-05,
            2.5702e-05,
            2.5913e-05,
            2.6126e-05,
            2.6342e-05,
            2.6561e-05,
            2.6782e-05,
            2.7007e-05,
            2.7234e-05,
            2.7464e-05,
            2.7697e-05,
            2.7932e-05,
            2.8171e-05,
            2.8413e-05,
            2.8658e-05,
            2.8906e-05,
            2.9158e-05,
            2.9413e-05,
            2.9671e-05,
            2.9932e-05,
            3.0197e-05,
            3.0466e-05,
            3.0738e-05,
            3.1014e-05,
            3.1293e-05,
            3.1577e-05,
            3.1864e-05,
            3.2155e-05,
            3.245e-05,
            3.2749e-05,
            3.3053e-05,
            3.336e-05,
            3.3672e-05,
            3.3989e-05,
            3.4309e-05,
            3.4635e-05,
            3.4965e-05,
            3.5299e-05,
            3.5639e-05,
            3.5983e-05,
            3.6333e-05,
            3.6688e-05,
            3.7047e-05,
            3.7413e-05,
            3.7783e-05,
            3.8159e-05,
            3.8541e-05,
            3.8929e-05,
            3.9322e-05,
            3.9722e-05,
            4.0127e-05,
            4.0539e-05,
            4.0957e-05,
            4.1382e-05,
            4.1813e-05,
            4.2251e-05,
            4.2696e-05,
            4.3148e-05,
            4.3607e-05,
            4.4074e-05,
            4.4548e-05,
            4.503e-05,
            4.552e-05,
            4.6017e-05,
            4.6523e-05,
            4.7038e-05,
            4.7561e-05,
            4.8092e-05,
            4.8633e-05,
            4.9183e-05,
            4.9742e-05,
            5.0311e-05,
            5.0889e-05,
            5.1478e-05,
            5.2077e-05,
            5.2687e-05,
            5.3307e-05,
            5.3938e-05,
            5.458e-05,
            5.5235e-05,
            5.59e-05,
            5.6578e-05,
            5.7269e-05,
            5.7972e-05,
            5.8688e-05,
            5.9417e-05,
            6.0161e-05,
            6.0918e-05,
            6.1689e-05,
            6.2476e-05,
            6.3277e-05,
            6.4094e-05,
            6.4927e-05,
            6.5776e-05,
            6.6642e-05,
            6.7526e-05,
            6.8427e-05,
            6.9346e-05,
            7.0284e-05,
            7.124e-05,
            7.2217e-05,
            7.3214e-05,
            7.4231e-05,
            7.527e-05,
            7.6331e-05,
            7.7415e-05,
            7.8521e-05,
            7.9652e-05,
            8.0807e-05,
            8.1987e-05,
            8.3194e-05,
            8.4427e-05,
            8.5689e-05,
            8.6978e-05,
            8.8297e-05,
            8.9646e-05,
            9.1026e-05,
            9.2439e-05,
            9.3884e-05,
            9.5364e-05,
            9.6878e-05,
            9.843e-05,
            0.00010002,
            0.00010164,
            0.00010331,
            0.00010502,
            0.00010677,
            0.00010857,
            0.00011041,
            0.0001123,
            0.00011424,
            0.00011623,
            0.00011827,
            0.00012036,
            0.00012251,
            0.00012472,
            0.00012699,
            0.00012932,
            0.00013172,
            0.00013419,
            0.00013672,
            0.00013933,
            0.00014201,
            0.00014477,
            0.00014761,
            0.00015054,
            0.00015355,
            0.00015666,
            0.00015986,
            0.00016315,
            0.00016656,
            0.00017007,
            0.00017369,
            0.00017743,
            0.00018129,
            0.00018528,
            0.0001894,
            0.00019366,
            0.00019807,
            0.00020263,
            0.00020734,
            0.00021223,
            0.00021729,
            0.00022253,
            0.00022796,
            0.0002336,
            0.00023945,
            0.00024552,
            0.00025182,
            0.00025837,
            0.00026518,
            0.00027226,
            0.00027962,
            0.00028729,
            0.00029529,
            0.00030362,
            0.0003123,
            0.00032137,
            0.00033083,
            0.00034072,
            0.00035106,
            0.00036188,
            0.00037321,
            0.00038507,
            0.00039751,
            0.00041057,
            0.00042427,
            0.00043868,
            0.00045383,
            0.00046978,
            0.00048659,
            0.00050431,
            0.00052303,
            0.0005428,
            0.00056371,
            0.00058586,
            0.00060934,
            0.00063426,
            0.00066074,
            0.00068891,
            0.00071893,
            0.00075095,
            0.00078515,
            0.00082175,
            0.00086097,
            0.00090307,
            0.00094833,
            0.00099708,
            0.0010497,
            0.0011066,
            0.0011682,
            0.0012351,
            0.001308,
            0.0013875,
            0.0014744,
            0.0015699,
            0.0016748,
            0.0017907,
            0.001919,
            0.0020617,
            0.0022208,
            0.0023991,
            0.0025998,
            0.0028268
          ],
          [
            8.5303,
            8.9139,
            8.9156,
            9.2411,
            9.3893,
            9.1302,
            8.4307,
            7.8549,
            7.5274,
            8.0617,
            8.8926,
            9.3673,
            9.2839,
            8.4809,
            7.9984,
            7.6438,
            7.8361,
            8.099,
            7.9138,
            7.8433,
            7.4835,
            7.3671,
            7.5109,
            7.9715,
            8.4183,
            8.7677,
            8.975,
            8.5152,
            8.1288,
            7.6431,
            7.4826,
            7.5882,
            7.9232,
            8.5019,
            8.6759,
            8.9949,
            9.0823,
            8.9456,
            9.0254,
            9.187,
            9.3605,
            9.4995,
            9.3933,
            9.1493,
            8.9102,
            8.7493,
            8.8692,
            8.6213,
            8.4899,
            8.4432,
            8.3061,
            8.6676,
            8.6938,
            8.6218,
            8.684,
            8.4516,
            8.5268,
            8.7549,
            8.7235,
            8.8285,
            8.7885,
            8.4586,
            8.0426,
            7.6457,
            7.2604,
            7.1428,
            7.5087,
            7.8764,
            8.4726,
            8.9195,
            8.8218,
            8.5018,
            7.8605,
            7.3537,
            7.2108,
            7.4898,
            8.0442,
            8.4943,
            8.7481,
            8.7269,
            8.7221,
            8.7356,
            8.5711,
            8.3544,
            7.9814,
            7.7292,
            7.8675,
            7.9048,
            8.0324,
            8.2294,
            8.3368,
            8.7135,
            8.898,
            8.8023,
            8.5723,
            8.2088,
            8.0074,
            8.0433,
            8.0263,
            8.1034,
            8.295,
            8.3477,
            8.5935,
            8.7969,
            8.7631,
            8.7796,
            8.7024,
            8.5622,
            8.5377,
            8.5487,
            8.4001,
            8.2265,
            7.969,
            7.6012,
            7.3931,
            7.2974,
            7.3793,
            7.5652,
            7.8645,
            8.2125,
            8.4668,
            8.6228,
            8.7237,
            8.5894,
            8.4801,
            8.411,
            8.1748,
            8.2306,
            8.234,
            8.3358,
            8.5111,
            8.4806,
            8.5135,
            8.4368,
            8.5511,
            8.7851,
            8.8017,
            8.8938,
            8.7113,
            8.4876,
            8.513,
            8.4124,
            8.3533,
            8.2673,
            8.1043,
            8.0633,
            8.0682,
            8.0381,
            8.0672,
            8.0402,
            8.0422,
            7.9886,
            7.7745,
            7.6136,
            7.5495,
            7.549,
            7.7457,
            7.902,
            7.7961,
            7.9269,
            7.9811,
            8.0532,
            8.3982,
            8.6528,
            8.7954,
            8.9634,
            8.9068,
            8.6279,
            8.4691,
            8.1743,
            8.1925,
            8.0442,
            7.8387,
            7.7129,
            7.1421,
            6.9324,
            6.7702,
            6.7346,
            7.1245,
            7.4625,
            7.794,
            7.8762,
            7.6821,
            7.4976,
            7.4213,
            7.6761,
            8.0312,
            8.3854,
            8.5423,
            8.4048,
            8.0428,
            7.664,
            7.4776,
            7.3274,
            7.5655,
            7.7192,
            7.7224,
            7.8323,
            7.8323,
            8.0499,
            8.2673,
            8.4071,
            8.2657,
            7.9749,
            7.7191,
            7.5586,
            7.6087,
            7.5376,
            7.4915,
            7.3748,
            7.2811,
            7.4043,
            7.6843,
            7.9118,
            8.0288,
            8.1385,
            7.868,
            7.6823,
            7.6739,
            7.493,
            7.6644,
            7.8164,
            7.8242,
            7.9743,
            7.9954,
            8.0595,
            8.1656,
            8.2399,
            8.1314,
            7.9604,
            7.8696,
            7.7262,
            7.8549,
            7.9727,
            7.9967,
            7.9901,
            8.0056,
            8.1037,
            8.0333,
            8.2318,
            8.2771,
            8.129,
            8.2861,
            8.1986,
            8.1489,
            8.2165,
            8.0162,
            7.861,
            7.6055,
            7.4949,
            7.5648,
            7.5701,
            7.5998,
            7.5755,
            7.4184,
            7.3753,
            7.6334,
            7.7183,
            8.0185,
            8.1658,
            7.9376,
            7.8382,
            7.6546,
            7.7185,
            7.9941,
            8.3399,
            8.5817,
            8.6173,
            8.457,
            8.1445,
            7.9575,
            7.8245,
            7.8302,
            7.9207,
            7.9424,
            7.9075,
            7.872,
            7.8936,
            7.9805,
            8.1948,
            8.1888,
            8.0739,
            7.9439,
            7.6377,
            7.6688,
            7.8314,
            7.7465,
            7.8239,
            7.7092,
            7.492,
            7.6337,
            7.6877,
            7.7874,
            7.788,
            7.6249,
            7.5803,
            7.661,
            7.9548,
            8.1917,
            8.3096,
            8.2378,
            7.9467,
            7.8375,
            7.8104,
            7.6438,
            7.6645,
            7.4567,
            7.1712,
            7.1266,
            6.8745,
            6.7009,
            6.5908,
            6.5339,
            6.7919,
            7.2398,
            7.6295,
            7.8624,
            7.9771,
            7.9239,
            7.9195,
            8.0281,
            7.9235,
            7.943,
            8.1014,
            8.0826,
            8.1815,
            8.0675,
            7.7318,
            7.56,
            7.5143,
            7.6836,
            7.9341,
            8.0986,
            8.0856,
            7.8931,
            7.7571,
            7.7084,
            7.743,
            7.8593,
            7.8912,
            7.9014,
            7.9501,
            8.0231,
            8.169,
            8.2815,
            8.187,
            7.9842,
            7.7027,
            7.4399,
            7.3871,
            7.3992,
            7.4446,
            7.4747,
            7.5077,
            7.5767,
            7.7469,
            7.8896,
            7.9225,
            7.9476,
            7.8176,
            7.7982,
            7.9074,
            7.8811,
            8.035,
            7.9838,
            7.865,
            7.865,
            7.6935,
            7.7511,
            7.6949,
            7.6184,
            7.5207,
            7.3525,
            7.2994,
            7.2657,
            7.2586,
            7.1696,
            7.1471,
            7.2148,
            7.4155,
            7.7529,
            7.7958,
            7.6055,
            7.3823,
            7.084,
            7.143,
            7.4135,
            7.5894,
            7.7133,
            7.649,
            7.5745,
            7.5759,
            7.6766,
            7.8262,
            7.8737,
            7.8946,
            7.9401,
            8.0105,
            8.1324,
            8.3078,
            8.4404,
            8.4741,
            8.4376,
            8.2418,
            7.9693,
            7.8185,
            7.7357,
            7.7032,
            7.7832,
            7.7184,
            7.6754,
            7.7857,
            7.7285,
            7.7326,
            7.5657,
            7.362,
            7.3459,
            7.3406,
            7.5655,
            7.6632,
            7.6487,
            7.6698,
            7.556,
            7.5303,
            7.5408,
            7.5483,
            7.6322,
            7.7269,
            7.8499,
            7.9522,
            7.9581,
            7.9219,
            7.8383,
            7.7753,
            7.7953,
            7.8373,
            7.9486,
            8.0277,
            7.9746,
            7.8352,
            7.5773,
            7.28,
            7.1291,
            7.087,
            7.0915,
            7.2122,
            7.2102,
            7.1692,
            7.1928,
            7.097,
            7.1747,
            7.2281,
            7.2617,
            7.3867,
            7.4391,
            7.608,
            7.7497,
            7.8641,
            7.8311,
            7.738,
            7.5919,
            7.4243,
            7.4361,
            7.4163,
            7.4949,
            7.4785,
            7.322,
            7.1591,
            7.0005,
            6.9701,
            7.1212,
            7.3543,
            7.5432,
            7.652,
            7.622,
            7.3967,
            7.234,
            7.2072,
            7.2404,
            7.4233,
            7.5137,
            7.612,
            7.6459,
            7.6706,
            7.6495,
            7.4316,
            7.3151,
            7.1649,
            7.1942,
            7.3561,
            7.447,
            7.5751,
            7.5488,
            7.5918,
            7.5587,
            7.4738,
            7.4096,
            7.1902,
            7.0616,
            7.0766,
            7.1601,
            7.3081,
            7.4648,
            7.4495,
            7.4008,
            7.3824,
            7.3025,
            7.2462,
            7.1775,
            7.0877,
            7.099,
            7.198,
            7.3058,
            7.4416,
            7.4584,
            7.4662,
            7.412,
            7.3669,
            7.3946,
            7.2895,
            7.2837,
            7.211,
            7.1687,
            7.1515,
            7.203,
            7.236,
            7.1726,
            7.2696,
            7.185,
            7.1711,
            7.2105,
            7.2096,
            7.3237,
            7.3313,
            7.3394,
            7.2722,
            7.1507,
            7.2019,
            7.3092,
            7.4123,
            7.49,
            7.4578,
            7.3288,
            7.2799,
            7.3576,
            7.404,
            7.5643,
            7.6327,
            7.6589,
            7.7786,
            7.7878,
            7.8745,
            7.8757,
            7.8338,
            7.7896,
            7.7071,
            7.6933,
            7.7013,
            7.8419,
            8.034,
            8.1401,
            8.1221,
            7.9538,
            7.6891,
            7.4752,
            7.3547,
            7.2482,
            7.2337,
            7.2701,
            7.2733,
            7.3059,
            7.2301,
            7.0913,
            7.0105,
            7.0056,
            7.0066,
            7.0559,
            7.1062,
            7.0453,
            7.0787,
            7.0631,
            7.1005,
            7.154,
            7.1742,
            7.2611,
            7.1443,
            7.1366,
            7.193,
            7.1794,
            7.3906,
            7.4765,
            7.4001,
            7.3302,
            7.1376,
            7.1322,
            7.2032,
            7.3437,
            7.6026,
            7.6084,
            7.6388,
            7.6513,
            7.5504,
            7.5147,
            7.4659,
            7.3738,
            7.2426,
            7.167,
            7.1888,
            7.2518,
            7.4335,
            7.7026,
            7.8588,
            8.0138,
            8.0759,
            7.9909,
            7.8518,
            7.5793,
            7.3843,
            7.1839,
            7.1234,
            7.1863,
            7.1753,
            7.2642,
            7.2536,
            7.2585,
            7.2814,
            7.2745,
            7.3233,
            7.3421,
            7.427,
            7.4971,
            7.4905,
            7.4554,
            7.3591,
            7.2051,
            7.1069,
            6.9865,
            6.8554,
            6.8371,
            6.8083,
            6.9172,
            7.0704,
            7.1152,
            7.2473,
            7.2858,
            7.2907,
            7.389,
            7.4702,
            7.5373,
            7.5968,
            7.6649,
            7.6256,
            7.6396,
            7.6455,
            7.5672,
            7.5082,
            7.3943,
            7.3691,
            7.3352,
            7.2856,
            7.2682,
            7.1199,
            7.0093,
            6.9011,
            6.7685,
            6.8014,
            6.9182,
            7.1362,
            7.3169,
            7.2863,
            7.1131,
            6.9418,
            6.8882,
            7.0853,
            7.3336,
            7.445,
            7.4666,
            7.3861,
            7.3681,
            7.4762,
            7.5823,
            7.5681,
            7.5196,
            7.3681,
            7.2887,
            7.3201,
            7.3064,
            7.3436,
            7.3412,
            7.3024,
            7.3421,
            7.3958,
            7.4256,
            7.4213,
            7.3276,
            7.2188,
            7.1888,
            7.2779,
            7.4521,
            7.7007,
            7.8486,
            7.8209,
            7.6615,
            7.2706,
            6.8895,
            6.5842,
            6.4198,
            6.4562,
            6.56,
            6.7159,
            6.793,
            6.8641,
            6.9369,
            6.9657,
            7.0517,
            7.0757,
            7.0041,
            6.8163,
            6.5697,
            6.3909,
            6.2943,
            6.4538,
            6.6474,
            6.8847,
            7.0969,
            7.2572,
            7.429,
            7.4347,
            7.3976,
            7.1786,
            6.8381,
            6.5908,
            6.4931,
            6.4659,
            6.6504,
            6.8627,
            6.9844,
            7.1158,
            7.1486,
            7.1624,
            7.0744,
            7.0811,
            7.0704,
            6.9728,
            6.9867,
            6.8187,
            6.6401,
            6.5338,
            6.4459,
            6.5601,
            6.7485,
            6.9612,
            7.0951,
            7.0845,
            7.0304,
            6.949,
            6.9696,
            6.9729,
            7.0014,
            7.0034,
            7.0112,
            7.0637,
            7.0114,
            6.9913,
            6.8086,
            6.6413,
            6.5406,
            6.4608,
            6.5568,
            6.7299,
            6.9726,
            7.202,
            7.2918,
            7.2566,
            7.1216,
            6.9216,
            6.7962,
            6.6543,
            6.5182,
            6.5525,
            6.6087,
            6.819,
            7.0718,
            7.1677,
            7.2685,
            7.2284,
            7.2096,
            7.2279,
            7.1539,
            7.0719,
            6.9447,
            6.7243,
            6.5293,
            6.5102,
            6.5233,
            6.7502,
            6.9902,
            7.0916,
            7.162,
            7.1084,
            7.0966,
            7.0288,
            6.9788,
            6.9124,
            6.8239,
            6.8172,
            6.8784,
            6.9531,
            7.0402,
            7.1074,
            6.9861,
            6.8541,
            6.7214,
            6.5423,
            6.5191,
            6.6015,
            6.6641,
            6.7341,
            6.7432,
            6.6545,
            6.5575,
            6.5511,
            6.6865,
            6.759,
            6.8731,
            6.9528,
            6.7913,
            6.6911,
            6.5568,
            6.4236,
            6.4672,
            6.5772,
            6.7268,
            6.8902,
            6.9514,
            6.9159,
            6.8078,
            6.6541,
            6.5992,
            6.6167,
            6.73,
            6.903,
            6.9784,
            7.0216,
            6.9586,
            6.8224,
            6.6395,
            6.5016,
            6.4373,
            6.4264,
            6.6312,
            6.7577,
            6.8434,
            6.796,
            6.5241,
            6.3164,
            6.1671,
            6.2026,
            6.2955,
            6.316,
            6.2818,
            6.233,
            6.2667,
            6.3917,
            6.5429,
            6.5451,
            6.431,
            6.2579,
            6.0569,
            5.9551,
            5.9341,
            5.9071,
            5.858,
            5.7822,
            5.7251,
            5.7335,
            5.806,
            5.9614,
            6.0619,
            6.1972,
            6.3662,
            6.4812,
            6.5702,
            6.4927,
            6.3237,
            6.1053,
            6.0414,
            6.0607,
            6.0454,
            6.0782,
            5.9219,
            5.7786,
            5.8223,
            5.8091,
            5.8772,
            5.9414,
            5.8943,
            5.8974,
            5.9385,
            5.9808,
            5.9871,
            5.9798,
            5.9789,
            6.003,
            6.0188,
            6.1139,
            6.1464,
            6.1686,
            6.3295,
            6.4208,
            6.511,
            6.4804,
            6.3023,
            6.1746,
            5.9835,
            5.9485,
            5.9142,
            5.7105,
            5.6221,
            5.4652,
            5.3713,
            5.4701,
            5.5542,
            5.6486,
            5.7821,
            5.8078,
            5.787,
            5.7554,
            5.6652,
            5.5959,
            5.5471,
            5.4736,
            5.3755,
            5.3148,
            5.3075,
            5.4493,
            5.6721,
            5.8578,
            5.9353,
            5.8365,
            5.6485,
            5.4532,
            5.3369,
            5.2471,
            5.181,
            5.0533,
            4.858,
            4.6874,
            4.5139,
            4.5546,
            4.7394,
            4.988,
            5.2117,
            5.1831,
            4.8852,
            4.4637,
            4.1279,
            3.8756,
            3.8837,
            3.9069,
            3.9052,
            3.9655,
            3.8969,
            3.9939,
            4.1504,
            4.4805,
            5.0519,
            5.6359,
            6.1809,
            6.313,
            6.0964,
            5.6719,
            5.1982,
            4.9188,
            4.7081,
            4.62,
            4.4778,
            4.3569,
            4.2856,
            4.0786,
            4.0225,
            3.8538,
            3.5977,
            3.4474,
            3.251,
            3.1328,
            3.1464,
            3.2928,
            3.6328,
            4.3224,
            5.3913,
            6.6737,
            7.9137,
            8.8482,
            9.1462,
            8.6508
          ]
        ]
      }
    }
  },
  "experimental_conditions": {
    "001": {
      "0": {
        "comment": [
          {
            "x4_code": null,
            "free_txt": [
              ".EFFECTS OF CRYSTAL BINDING ON THE CROSS SECTIONS",
              " UP TO A FEW THOUSAND EV ARE CONSIDERED PROBABLE."
            ]
          }
        ],
        "detector": [
          {
            "x4_code": "(SCIN )",
            "free_txt": [
              " NO DETAILS."
            ]
          }
        ],
        "err-analys": [
          {
            "x4_code": null,
            "free_txt": [
              ".NO INFORMATION GIVEN."
            ]
          }
        ],
        "facility": [
          {
            "x4_code": "(VDG  )",
            "free_txt": []
          }
        ],
        "inc-source": [
          {
            "x4_code": "(PHOTO)",
            "free_txt": []
          }
        ],
        "method": [
          {
            "x4_code": "(TOF  )",
            "free_txt": [
              " TIME OF FLIGHT."
            ]
          }
        ],
        "sample": [
          {
            "x4_code": null,
            "free_txt": [
              ".NATURAL COPPER, SINGLE CRYSTALS WITH TWO DIFFERENT",
              " CRYSTALLOGRAPHIC ORIENTATIONS."
            ]
          }
        ],
        "status": [
          {
            "x4_code": "(NDD  )",
            "free_txt": [
              " CONVERTED FROM NEUDADA."
            ]
          }
        ]
      }
    },
    "002": {
      "0": {
        "comment": [
          {
            "x4_code": null,
            "free_txt": [
              ".CRYSTAL ORIENTATION 1."
            ]
          }
        ],
        "status": [
          {
            "x4_code": "(NDD  )",
            "free_txt": []
          }
        ]
      }
    },
    "003": {
      "0": {
        "comment": [
          {
            "x4_code": null,
            "free_txt": [
              ".CRYSTAL ORIENTATION 2."
            ]
          }
        ],
        "status": [
          {
            "x4_code": "(NDD  )",
            "free_txt": []
          }
        ]
      }
    }
  }
}