{
  "bib": {
    "title": "New Precision Measurements Of The 235U(N,G) Cross Section",
    "authors": [
      {
        "name": "M.Jandel"
      },
      {
        "name": " T.A.Bredeweg"
      },
      {
        "name": " E.M.Bond"
      },
      {
        "name": " M.B.Chadwick"
      },
      {
        "name": " A.Couture"
      },
      {
        "name": " J.M.O'Donnell"
      },
      {
        "name": " M.Fowler"
      },
      {
        "name": " R.C.Haight"
      },
      {
        "name": " T.Kawano"
      },
      {
        "name": " R.Reifarth"
      },
      {
        "name": " R.S.Rundberg"
      },
      {
        "name": " J.L.Ullmann"
      },
      {
        "name": " D.J.Vieira"
      },
      {
        "name": " J.M.Wouters"
      },
      {
        "name": " J.B.Wilhelmy"
      },
      {
        "name": " C.Y.Wu"
      },
      {
        "name": " J.A.Becker"
      }
    ],
    "institutes": [
      {
        "x4_code": "(1USALAS)",
        "free_txt": ""
      },
      {
        "x4_code": "(1USALRL)",
        "free_txt": ""
      }
    ],
    "references": {
      "0": [
        {
          "x4_code": "(J,PRL,109,202506,2012)",
          "free_txt": [
            " Final (n,g) and alpha"
          ],
          "publication_year": "2012"
        },
        {
          "x4_code": "(J,NIM/B,261,986,2007)",
          "free_txt": [
            "  Prelim. (n,g) and (n,f) in figs"
          ],
          "publication_year": "2007"
        },
        {
          "x4_code": "(C,2007NICE,1,607,2008)",
          "free_txt": [
            " Prelim. (n,g) and (n,f) in figs"
          ],
          "publication_year": "2008"
        }
      ]
    },
    "facility": {
      "0": [
        {
          "x4_code": "(LINAC,1USALAS)",
          "free_txt": [
            " Lujan Neutron Scattering Center of",
            " LANSCE"
          ],
          "facility_type": "(LINAC)",
          "insitute": "(1USALAS)"
        }
      ]
    },
    "history": [
      {
        "x4_code": "(20080211C)",
        "free_txt": [
          " Compiled by S.H."
        ]
      },
      {
        "x4_code": "(20100315A)",
        "free_txt": [
          " 2007NICE added. Major revisions in 002-003."
        ]
      },
      {
        "x4_code": "(20120425A)",
        "free_txt": [
          " S.H. 004-006 added for data presented at",
          " 2007NICE without numerical data"
        ]
      },
      {
        "x4_code": "(20130408A)",
        "free_txt": [
          " S.H. Major revision in 003. 004-006 deleted"
        ]
      },
      {
        "x4_code": "(20170329A)",
        "free_txt": [
          " On. Major revisions in 002-003. 007 added."
        ]
      }
    ]
  },
  "14149-001": {
    "extra_information": {
      "analysis": {
        "0": [
          {
            "x4_code": null,
            "free_txt": [
              "Capture cross section was obtained by combination",
              " of three independent experiments/measurements",
              "  1. Measurement with a thick sample to obtain a good",
              "     statistics of capture gamma-rays",
              "  2. Measurement with a thin sample inside a 4pi",
              "     PPAC counter to measure gamma-rays associated",
              "     with fission",
              "  3. Measurements of the neutron scattering background",
              "     using a 208Pb sample",
              "Overall fission gamma-ray spectrum obtained in",
              " coincidence with PPAC was normalized to thick target",
              " data in high gamma multiplicity region M>6, where",
              " only gamma-rays associated with fission are emitted.",
              "Thick target events with gamma multiplicity between 3",
              " and 5 and the total gamma energy between 5.7 and",
              " 6.7 MeV were selected as capture events, and the",
              " remaining portion fission gamma-rays was subtracted",
              " by using the PPAC data normalized to the thick target",
              " data."
            ]
          }
        ]
      },
      "detector": {
        "0": [
          {
            "x4_code": "(BAF2)",
            "free_txt": [
              " 4pi highly segmented highly efficient gamma-ray",
              " calorimeter DANCE (inner radius of 17 cm) which",
              " consists of 160 BaF2 scintillation crystals (15 cm",
              " long) having the same solid-angle coverage."
            ]
          },
          {
            "x4_code": "(PPAC)",
            "free_txt": [
              " To detect fission fragments and tag the",
              " gamma-rays from fission."
            ]
          }
        ]
      },
      "facility": {
        "0": [
          {
            "x4_code": "(LINAC,1USALAS)",
            "free_txt": [
              " Lujan Neutron Scattering Center of",
              " LANSCE"
            ]
          }
        ]
      },
      "inc-source": {
        "0": [
          {
            "x4_code": "(SPALL)",
            "free_txt": [
              " Spallation on a natural W target by 800-MeV",
              " protons beams (~ 1-2 uA, pulse width of ~125 nsec",
              " FWHM with a repetition rate of 20 Hz)."
            ]
          }
        ]
      },
      "method": {
        "0": [
          {
            "x4_code": "(TOF)",
            "free_txt": [
              " gamma flash from the spallation reaction and",
              " gamma-ray by neutron interacting with sample were",
              " used to calculate the time-of-flight"
            ]
          }
        ]
      },
      "monitor": {
        "0": [
          {
            "x4_code": "(92-U-235(N,G)92-U-236,,INT)",
            "free_txt": [
              " Overall normalization constant was obtained by",
              " cross section integral from 45 to 100 eV in",
              " ENDF/B-VII.1 (837.8 eV*b)"
            ]
          }
        ]
      },
      "sample": {
        "0": [
          {
            "x4_code": "(92-U-235,ENR=0.94)",
            "free_txt": [
              "Self-supporting sample (26 mg/cm2 thick) for",
              " thick target experiment"
            ]
          },
          {
            "x4_code": "(92-U-235,ENR=0.999)",
            "free_txt": [
              "Sample installed inside PPAC (130 ug/cm2 thick) for",
              " thin target measurements"
            ]
          },
          {
            "x4_code": "(82-PB-208,ENR=0.99)",
            "free_txt": [
              "Enriched 208Pb sample (~120 mg/cm2) for neutron",
              " scattering background measurement"
            ]
          }
        ]
      }
    }
  },
  "14149-002": {
    "reaction": {
      "0": {
        "x4_code": "(92-U-235(N,F),,SIG)",
        "0": {
          "code": [
            "92-U-235",
            [
              "N,F"
            ],
            ",,SIG"
          ],
          "type": null,
          "target": "92-U-235",
          "process": "N,F",
          "sf49": ",,SIG",
          "sf4": null,
          "sf5": null,
          "sf6": "SIG",
          "sf7": null,
          "sf8": null,
          "sf9": null
        },
        "type": null,
        "free_text": ""
      }
    },
    "extra_information": {
      "err-analys": {
        "0": [
          {
            "x4_code": "(ERR-S)",
            "free_txt": [
              " Statistical uncertainty"
            ]
          }
        ]
      },
      "status": {
        "0": [
          {
            "x4_code": "(CURVE)",
            "free_txt": [
              " Fig.5 of Nucl.Instrum.Meth.B261(2007)986"
            ]
          },
          {
            "x4_code": "(PRELM)",
            "free_txt": []
          }
        ]
      }
    },
    "common": null,
    "data": {
      "heads": [
        "EN",
        "DATA",
        "ERR-S"
      ],
      "units": [
        "EV",
        "B",
        "B"
      ],
      "data": [
        [
          6.028,
          6.08,
          6.131,
          6.196,
          6.273,
          6.325,
          6.389,
          6.441,
          6.506,
          6.557,
          6.622,
          6.687,
          6.738,
          6.803,
          6.854,
          6.906,
          6.983,
          7.034,
          7.15,
          7.163,
          7.228,
          7.28,
          7.332,
          7.383,
          7.448,
          7.499,
          7.538,
          7.577,
          7.641,
          7.693,
          7.758,
          7.835,
          7.874,
          7.951,
          8.015,
          8.067,
          8.118,
          8.183,
          8.247,
          8.299,
          8.363,
          8.428,
          8.479,
          8.544,
          8.595,
          8.672,
          8.724,
          8.801,
          8.853,
          8.905,
          8.956,
          9.034,
          9.073,
          9.137,
          9.215,
          9.266,
          9.305,
          9.382,
          9.434,
          9.512,
          9.589,
          9.679,
          9.77,
          9.795,
          9.925,
          9.976,
          9.989,
          10.05,
          10.11,
          10.17,
          10.23,
          10.27,
          10.36,
          10.41,
          10.45,
          10.53,
          10.6,
          10.67,
          10.71,
          10.76,
          10.81,
          10.91,
          10.98,
          11.0,
          11.07,
          11.12,
          11.19,
          11.25,
          11.27,
          11.32,
          11.4,
          11.43,
          11.47,
          11.56,
          11.61,
          11.67,
          11.73,
          11.8,
          11.85,
          11.92,
          11.98,
          12.03,
          12.09,
          12.14,
          12.21,
          12.26,
          12.32,
          12.39,
          12.45,
          12.5,
          12.57,
          12.63,
          12.69,
          12.75,
          12.85,
          12.87,
          12.97,
          13.0,
          13.07,
          13.19,
          13.24,
          13.37,
          13.42,
          13.49,
          13.59,
          13.65,
          13.7,
          13.78,
          13.85,
          13.95,
          14.01,
          14.07,
          14.13,
          14.19,
          14.25,
          14.31,
          14.38,
          14.43,
          14.49,
          14.56,
          14.62,
          14.67,
          14.79,
          14.84,
          14.92,
          14.98,
          15.02,
          15.1,
          15.15,
          15.2,
          15.27,
          15.33,
          15.39,
          15.43,
          15.52,
          15.59,
          15.64,
          15.69,
          15.76,
          15.81,
          15.87,
          15.92,
          15.99,
          16.05,
          16.12,
          16.18,
          16.23,
          16.3,
          16.36,
          16.41,
          16.47,
          16.53,
          16.58,
          16.66,
          16.72,
          16.77,
          16.83,
          16.89,
          16.94,
          17.01,
          17.07,
          17.14,
          17.21,
          17.32,
          17.39,
          17.43,
          17.5
        ],
        [
          29.28,
          37.21,
          48.03,
          56.35,
          65.05,
          86.71,
          121.2,
          64.02,
          21.28,
          8.987,
          6.851,
          6.029,
          7.909,
          9.89,
          12.37,
          19.96,
          38.41,
          69.34,
          69.34,
          33.27,
          13.61,
          6.742,
          3.918,
          4.045,
          3.981,
          4.312,
          3.676,
          3.34,
          2.389,
          1.972,
          2.758,
          2.546,
          3.56,
          3.856,
          4.244,
          6.126,
          8.987,
          14.51,
          16.75,
          20.61,
          33.27,
          47.27,
          70.46,
          115.6,
          180.7,
          336.8,
          535.1,
          617.7,
          427.9,
          240.9,
          156.5,
          105.0,
          89.52,
          72.75,
          86.71,
          105.0,
          80.06,
          62.01,
          45.79,
          37.21,
          30.72,
          26.19,
          30.72,
          22.32,
          19.34,
          17.85,
          12.97,
          20.94,
          27.91,
          36.04,
          30.23,
          24.18,
          19.96,
          17.57,
          10.88,
          13.18,
          10.71,
          12.57,
          10.71,
          13.83,
          11.42,
          12.97,
          11.98,
          10.54,
          13.61,
          11.24,
          14.28,
          12.57,
          11.42,
          14.74,
          16.48,
          18.73,
          23.8,
          39.03,
          52.03,
          64.02,
          48.03,
          26.19,
          19.34,
          22.68,
          25.77,
          33.27,
          43.65,
          58.18,
          88.1,
          140.0,
          244.7,
          336.8,
          269.3,
          123.2,
          49.59,
          24.57,
          18.73,
          26.61,
          25.36,
          35.47,
          27.04,
          20.61,
          17.02,
          19.34,
          27.91,
          28.82,
          23.05,
          30.23,
          37.21,
          45.06,
          53.71,
          63.01,
          70.46,
          80.06,
          92.43,
          72.75,
          64.02,
          57.25,
          48.03,
          37.81,
          42.28,
          33.27,
          39.66,
          33.81,
          22.32,
          11.98,
          10.38,
          7.187,
          11.24,
          9.733,
          11.42,
          15.97,
          12.17,
          21.62,
          31.21,
          42.96,
          60.06,
          48.81,
          38.41,
          18.14,
          8.431,
          7.661,
          9.89,
          11.06,
          12.77,
          20.61,
          36.62,
          48.81,
          65.05,
          45.06,
          27.04,
          14.05,
          9.733,
          13.39,
          18.14,
          33.27,
          47.27,
          68.25,
          62.01,
          51.2,
          37.21,
          20.94,
          14.05,
          9.89,
          8.431,
          9.89,
          8.297,
          8.566,
          8.166,
          10.71,
          4.452
        ],
        [
          3.919,
          5.49,
          6.428,
          7.541,
          8.706,
          7.92,
          12.82,
          8.568,
          5.058,
          2.661,
          2.469,
          2.234,
          2.162,
          2.817,
          2.852,
          4.251,
          4.605,
          7.332,
          8.314,
          7.5,
          4.182,
          2.697,
          1.782,
          1.909,
          1.74,
          2.107,
          1.855,
          1.737,
          1.542,
          1.395,
          1.665,
          1.505,
          1.852,
          1.686,
          1.93,
          2.451,
          2.661,
          3.623,
          4.183,
          4.754,
          6.236,
          4.318,
          7.449,
          12.22,
          19.11,
          30.76,
          64.15,
          74.06,
          45.24,
          22.0,
          23.09,
          12.59,
          10.73,
          6.644,
          12.79,
          14.05,
          10.71,
          8.299,
          8.581,
          6.486,
          4.533,
          4.217,
          6.153,
          4.754,
          3.873,
          3.112,
          3.546,
          3.925,
          4.496,
          6.283,
          5.271,
          5.747,
          4.745,
          3.741,
          3.1,
          3.133,
          2.281,
          3.434,
          3.172,
          3.463,
          3.252,
          2.992,
          1.632,
          3.003,
          3.399,
          3.201,
          3.735,
          2.987,
          2.431,
          2.952,
          3.089,
          3.265,
          5.067,
          6.286,
          9.07,
          11.16,
          8.374,
          5.576,
          4.596,
          3.036,
          4.151,
          5.358,
          6.44,
          6.975,
          11.79,
          22.54,
          36.11,
          58.71,
          50.48,
          23.09,
          8.646,
          4.716,
          3.51,
          4.285,
          4.085,
          6.183,
          5.067,
          4.389,
          3.624,
          3.371,
          4.119,
          5.401,
          4.616,
          3.625,
          4.461,
          6.031,
          6.44,
          5.755,
          6.436,
          8.464,
          9.772,
          8.721,
          6.769,
          6.864,
          7.087,
          5.578,
          7.923,
          6.236,
          7.433,
          6.771,
          5.032,
          3.134,
          3.414,
          2.735,
          3.328,
          2.883,
          3.252,
          3.987,
          3.327,
          4.604,
          5.442,
          5.15,
          12.03,
          11.0,
          7.693,
          4.311,
          2.304,
          2.839,
          2.929,
          2.628,
          3.189,
          4.646,
          6.862,
          6.532,
          9.598,
          7.856,
          6.753,
          4.161,
          3.098,
          3.815,
          3.4,
          3.989,
          6.975,
          9.133,
          8.299,
          6.852,
          8.387,
          4.721,
          4.161,
          2.929,
          2.864,
          3.148,
          2.73,
          2.726,
          2.774,
          3.292,
          2.138
        ]
      ]
    }
  },
  "14149-003": {
    "reaction": {
      "0": {
        "x4_code": "(92-U-235(N,G)92-U-236,,SIG)",
        "0": {
          "code": [
            "92-U-235",
            [
              "N,G"
            ],
            "92-U-236,,SIG"
          ],
          "type": null,
          "target": "92-U-235",
          "process": "N,G",
          "sf49": "92-U-236,,SIG",
          "sf4": "92-U-236",
          "sf5": null,
          "sf6": "SIG",
          "sf7": null,
          "sf8": null,
          "sf9": null
        },
        "type": null,
        "free_text": ""
      }
    },
    "extra_information": {
      "err-analys": {
        "0": [
          {
            "x4_code": "(DATA-ERR)",
            "free_txt": [
              " Total uncertainty which could not be",
              " separated to statistical and systematic uncertainties",
              " because of data correlations.",
              "Uncertainties will be updated after publication of a",
              " separate paper devoted to uncertainties."
            ]
          }
        ]
      },
      "status": {
        "0": [
          {
            "x4_code": "(TABLE)",
            "free_txt": [
              " Data sent by author (M.J.) corresponding to",
              " Fig.3+4 of Phys.Rev.Lett.109(2012)202506"
            ]
          }
        ]
      }
    },
    "common": {
      "heads": [
        "EN-NRM-MIN",
        "EN-NRM-MAX",
        "MONIT"
      ],
      "units": [
        "EV",
        "EV",
        "B*EV"
      ],
      "data": [
        [
          45.0
        ],
        [
          100.0
        ],
        [
          837.8
        ]
      ]
    },
    "data": {
      "heads": [
        "EN",
        "EN-RSL",
        "DATA",
        "DATA-ERR"
      ],
      "units": [
        "EV",
        "EV",
        "B",
        "B"
      ],
      "data": [
        [
          4.02718,
          4.04577,
          4.06444,
          4.0832,
          4.10205,
          4.12099,
          4.14001,
          4.15912,
          4.17831,
          4.1976,
          4.21698,
          4.23644,
          4.256,
          4.27564,
          4.29538,
          4.3152,
          4.33512,
          4.35513,
          4.37523,
          4.39543,
          4.41572,
          4.4361,
          4.45657,
          4.47714,
          4.49781,
          4.51857,
          4.53943,
          4.56038,
          4.58143,
          4.60258,
          4.62382,
          4.64517,
          4.66661,
          4.68815,
          4.70979,
          4.73153,
          4.75336,
          4.77531,
          4.79735,
          4.81949,
          4.84174,
          4.86408,
          4.88654,
          4.90909,
          4.93175,
          4.95452,
          4.97738,
          5.00036,
          5.02344,
          5.04663,
          5.06992,
          5.09332,
          5.11683,
          5.14045,
          5.16418,
          5.18801,
          5.21196,
          5.23602,
          5.26019,
          5.28447,
          5.30886,
          5.33336,
          5.35798,
          5.38271,
          5.40756,
          5.43252,
          5.45759,
          5.48278,
          5.50809,
          5.53352,
          5.55906,
          5.58472,
          5.61049,
          5.63639,
          5.66241,
          5.68854,
          5.7148,
          5.74118,
          5.76768,
          5.7943,
          5.82105,
          5.84792,
          5.87491,
          5.90203,
          5.92927,
          5.95664,
          5.98413,
          6.01175,
          6.0395,
          6.06738,
          6.09539,
          6.12352,
          6.15179,
          6.18018,
          6.20871,
          6.23736,
          6.26616,
          6.29508,
          6.32414,
          6.35333,
          6.38265,
          6.41211,
          6.44171,
          6.47144,
          6.50131,
          6.53132,
          6.56147,
          6.59176,
          6.62218,
          6.65275,
          6.68346,
          6.71431,
          6.7453,
          6.77643,
          6.80771,
          6.83913,
          6.8707,
          6.90242,
          6.93428,
          6.96628,
          6.99844,
          7.03074,
          7.06319,
          7.0958,
          7.12855,
          7.16145,
          7.19451,
          7.22772,
          7.26108,
          7.29459,
          7.32826,
          7.36209,
          7.39607,
          7.43021,
          7.46451,
          7.49896,
          7.53358,
          7.56835,
          7.60328,
          7.63838,
          7.67364,
          7.70906,
          7.74464,
          7.78039,
          7.8163,
          7.85238,
          7.88862,
          7.92503,
          7.96161,
          7.99836,
          8.03528,
          8.07237,
          8.10963,
          8.14706,
          8.18467,
          8.22245,
          8.2604,
          8.29853,
          8.33683,
          8.37532,
          8.41397,
          8.45281,
          8.49183,
          8.53102,
          8.5704,
          8.60996,
          8.6497,
          8.68963,
          8.72974,
          8.77003,
          8.81051,
          8.85118,
          8.89203,
          8.93308,
          8.97431,
          9.01574,
          9.05735,
          9.09916,
          9.14116,
          9.18335,
          9.22574,
          9.26832,
          9.3111,
          9.35408,
          9.39726,
          9.44063,
          9.48421,
          9.52799,
          9.57197,
          9.61615,
          9.66053,
          9.70513,
          9.74992,
          9.79493,
          9.84014,
          9.88556,
          9.93119,
          9.97703,
          10.0231,
          10.0693,
          10.1158,
          10.1625,
          10.2094,
          10.2565,
          10.3039,
          10.3514,
          10.3992,
          10.4472,
          10.4955,
          10.5439,
          10.5926,
          10.6415,
          10.6906,
          10.7399,
          10.7895,
          10.8393,
          10.8893,
          10.9396,
          10.9901,
          11.0408,
          11.0918,
          11.143,
          11.1944,
          11.2461,
          11.298,
          11.3501,
          11.4025,
          11.4552,
          11.508,
          11.5612,
          11.6145,
          11.6681,
          11.722,
          11.7761,
          11.8304,
          11.8851,
          11.9399,
          11.995,
          12.0504,
          12.106,
          12.1619,
          12.218,
          12.2744,
          12.3311,
          12.388,
          12.4452,
          12.5026,
          12.5603,
          12.6183,
          12.6766,
          12.7351,
          12.7938,
          12.8529,
          12.9122,
          12.9718,
          13.0317,
          13.0919,
          13.1523,
          13.213,
          13.274,
          13.3352,
          13.3968,
          13.4586,
          13.5208,
          13.5832,
          13.6459,
          13.7089,
          13.7721,
          13.8357,
          13.8996,
          13.9637,
          14.0282,
          14.0929,
          14.158,
          14.2233,
          14.289,
          14.3549,
          14.4212,
          14.4878,
          14.5546,
          14.6218,
          14.6893,
          14.7571,
          14.8252,
          14.8937,
          14.9624,
          15.0315,
          15.1008,
          15.1705,
          15.2406,
          15.3109,
          15.3816,
          15.4526,
          15.5239,
          15.5956,
          15.6676,
          15.7399,
          15.8125,
          15.8855,
          15.9588,
          16.0325,
          16.1065,
          16.1808,
          16.2555,
          16.3306,
          16.4059,
          16.4817,
          16.5577,
          16.6342,
          16.711,
          16.7881,
          16.8656,
          16.9434,
          17.0216,
          17.1002,
          17.1791,
          17.2584,
          17.3381,
          17.4181,
          17.4985,
          17.5793,
          17.6604,
          17.7419,
          17.8238,
          17.9061,
          17.9888,
          18.0718,
          18.1552,
          18.239,
          18.3232,
          18.4078,
          18.4927,
          18.5781,
          18.6638,
          18.75,
          18.8365,
          18.9235,
          19.0108,
          19.0986,
          19.1867,
          19.2753,
          19.3643,
          19.4537,
          19.5434,
          19.6337,
          19.7243,
          19.8153,
          19.9068,
          19.9987,
          20.091,
          20.1837,
          20.2769,
          20.3705,
          20.4645,
          20.559,
          20.6539,
          20.7492,
          20.845,
          20.9412,
          21.0378,
          21.1349,
          21.2325,
          21.3305,
          21.429,
          21.5279,
          21.6272,
          21.7271,
          21.8274,
          21.9281,
          22.0293,
          22.131,
          22.2332,
          22.3358,
          22.4389,
          22.5425,
          22.6465,
          22.751,
          22.856,
          22.9615,
          23.0675,
          23.174,
          23.281,
          23.3884,
          23.4964,
          23.6048,
          23.7138,
          23.8233,
          23.9332,
          24.0437,
          24.1547,
          24.2662,
          24.3782,
          24.4907,
          24.6037,
          24.7173,
          24.8314,
          24.946,
          25.0612,
          25.1768,
          25.293,
          25.4098,
          25.5271,
          25.6449,
          25.7633,
          25.8822,
          26.0017,
          26.1217,
          26.2423,
          26.3634,
          26.4851,
          26.6073,
          26.7301,
          26.8535,
          26.9775,
          27.102,
          27.2271,
          27.3528,
          27.479,
          27.6059,
          27.7333,
          27.8613,
          27.9899,
          28.1191,
          28.2489,
          28.3793,
          28.5103,
          28.6419,
          28.7741,
          28.9069,
          29.0403,
          29.1743,
          29.309,
          29.4443,
          29.5802,
          29.7167,
          29.8539,
          29.9917,
          30.1301,
          30.2692,
          30.4089,
          30.5493,
          30.6903,
          30.832,
          30.9743,
          31.1172,
          31.2609,
          31.4052,
          31.5501,
          31.6958,
          31.8421,
          31.989,
          32.1367,
          32.285,
          32.434,
          32.5838,
          32.7342,
          32.8853,
          33.037,
          33.1895,
          33.3427,
          33.4966,
          33.6512,
          33.8066,
          33.9626,
          34.1194,
          34.2769,
          34.4351,
          34.594,
          34.7537,
          34.9141,
          35.0753,
          35.2372,
          35.3998,
          35.5632,
          35.7274,
          35.8923,
          36.058,
          36.2244,
          36.3916,
          36.5596,
          36.7283,
          36.8979,
          37.0682,
          37.2393,
          37.4112,
          37.5838,
          37.7573,
          37.9316,
          38.1067,
          38.2826,
          38.4593,
          38.6368,
          38.8151,
          38.9943,
          39.1743,
          39.3551,
          39.5368,
          39.7193,
          39.9026,
          40.0868,
          40.2718,
          40.4577,
          40.6444,
          40.832,
          41.0205,
          41.2099,
          41.4001,
          41.5912,
          41.7831,
          41.976,
          42.1698,
          42.3644,
          42.56,
          42.7564,
          42.9538,
          43.152,
          43.3512,
          43.5513,
          43.7523,
          43.9543,
          44.1572,
          44.361,
          44.5657,
          44.7714,
          44.9781,
          45.1857,
          45.3943,
          45.6038,
          45.8143,
          46.0258,
          46.2382,
          46.4517,
          46.6661,
          46.8815,
          47.0979,
          47.3153,
          47.5336,
          47.7531,
          47.9735,
          48.1949,
          48.4174,
          48.6408,
          48.8654,
          49.0909,
          49.3175,
          49.5452,
          49.7738,
          50.0036,
          50.2344,
          50.4663,
          50.6992,
          50.9332,
          51.1683,
          51.4045,
          51.6418,
          51.8801,
          52.1196,
          52.3602,
          52.6019,
          52.8447,
          53.0886,
          53.3336,
          53.5798,
          53.8271,
          54.0756,
          54.3252,
          54.5759,
          54.8278,
          55.0809,
          55.3352,
          55.5906,
          55.8472,
          56.1049,
          56.3639,
          56.6241,
          56.8854,
          57.148,
          57.4118,
          57.6768,
          57.943,
          58.2105,
          58.4792,
          58.7491,
          59.0203,
          59.2927,
          59.5664,
          59.8413,
          60.1175,
          60.395,
          60.6738,
          60.9539,
          61.2352,
          61.5179,
          61.8018,
          62.0871,
          62.3736,
          62.6616,
          62.9508,
          63.2414,
          63.5333,
          63.8265,
          64.1211,
          64.4171,
          64.7144,
          65.0131,
          65.3132,
          65.6147,
          65.9176,
          66.2218,
          66.5275,
          66.8346,
          67.1431,
          67.453,
          67.7643,
          68.0771,
          68.3913,
          68.707,
          69.0242,
          69.3428,
          69.6628,
          69.9844,
          70.3074,
          70.6319,
          70.958,
          71.2855,
          71.6145,
          71.9451,
          72.2772,
          72.6108,
          72.9459,
          73.2826,
          73.6209,
          73.9607,
          74.3021,
          74.6451,
          74.9896,
          75.3358,
          75.6835,
          76.0328,
          76.3838,
          76.7364,
          77.0906,
          77.4464,
          77.8039,
          78.163,
          78.5238,
          78.8862,
          79.2503,
          79.6161,
          79.9836,
          80.3528,
          80.7237,
          81.0963,
          81.4706,
          81.8467,
          82.2245,
          82.604,
          82.9853,
          83.3683,
          83.7532,
          84.1397,
          84.5281,
          84.9183,
          85.3102,
          85.704,
          86.0996,
          86.497,
          86.8963,
          87.2974,
          87.7003,
          88.1051,
          88.5118,
          88.9203,
          89.3308,
          89.7431,
          90.1574,
          90.5735,
          90.9916,
          91.4116,
          91.8335,
          92.2574,
          92.6832,
          93.111,
          93.5408,
          93.9726,
          94.4063,
          94.8421,
          95.2799,
          95.7197,
          96.1615,
          96.6053,
          97.0513,
          97.4992,
          97.9493,
          98.4014,
          98.8556,
          99.3119,
          99.7703,
          100.231,
          100.693,
          101.158,
          101.625,
          102.094,
          102.565,
          103.039,
          103.514,
          103.992,
          104.472,
          104.955,
          105.439,
          105.926,
          106.415,
          106.906,
          107.399,
          107.895,
          108.393,
          108.893,
          109.396,
          109.901,
          110.408,
          110.918,
          111.43,
          111.944,
          112.461,
          112.98,
          113.501,
          114.025,
          114.552,
          115.08,
          115.612,
          116.145,
          116.681,
          117.22,
          117.761,
          118.304,
          118.851,
          119.399,
          119.95,
          120.504,
          121.06,
          121.619,
          122.18,
          122.744,
          123.311,
          123.88,
          124.452,
          125.026,
          125.603,
          126.183,
          126.766,
          127.351,
          127.938,
          128.529,
          129.122,
          129.718,
          130.317,
          130.919,
          131.523,
          132.13,
          132.74,
          133.352,
          133.968,
          134.586,
          135.208,
          135.832,
          136.459,
          137.089,
          137.721,
          138.357,
          138.996,
          139.637,
          140.282,
          140.929,
          141.58,
          142.233,
          142.89,
          143.549,
          144.212,
          144.878,
          145.546,
          146.218,
          146.893,
          147.571,
          148.252,
          148.937,
          149.624,
          150.315,
          151.008,
          151.705,
          152.406,
          153.109,
          153.816,
          154.526,
          155.239,
          155.956,
          156.676,
          157.399,
          158.125,
          158.855,
          159.588,
          160.325,
          161.065,
          161.808,
          162.555,
          163.306,
          164.059,
          164.817,
          165.577,
          166.342,
          167.11,
          167.881,
          168.656,
          169.434,
          170.216,
          171.002,
          171.791,
          172.584,
          173.381,
          174.181,
          174.985,
          175.793,
          176.604,
          177.419,
          178.238,
          179.061,
          179.888,
          180.718,
          181.552,
          182.39,
          183.232,
          184.078,
          184.927,
          185.781,
          186.638,
          187.5,
          188.365,
          189.235,
          190.108,
          190.986,
          191.867,
          192.753,
          193.643,
          194.537,
          195.434,
          196.337,
          197.243,
          198.153,
          199.068,
          199.987,
          200.91,
          201.837,
          202.769,
          203.705,
          204.645,
          205.59,
          206.539,
          207.492,
          208.45,
          209.412,
          210.378,
          211.349,
          212.325,
          213.305,
          214.29,
          215.279,
          216.272,
          217.271,
          218.274,
          219.281,
          220.293,
          221.31,
          222.332,
          223.358,
          224.389,
          225.425,
          226.465,
          227.51,
          228.56,
          229.615,
          230.675,
          231.74,
          232.81,
          233.884,
          234.964,
          236.048,
          237.138,
          238.233,
          239.332,
          240.437,
          241.547,
          242.662,
          243.782,
          244.907,
          246.037,
          247.173,
          248.314,
          249.46,
          250.612,
          251.768,
          252.93,
          254.098,
          255.271,
          256.449,
          257.633,
          258.822,
          260.017,
          261.217,
          262.423,
          263.634,
          264.851,
          266.073,
          267.301,
          268.535,
          269.775,
          271.02,
          272.271,
          273.528,
          274.79,
          276.059,
          277.333,
          278.613,
          279.899,
          281.191,
          282.489,
          283.793,
          285.103,
          286.419,
          287.741,
          289.069,
          290.403,
          291.743,
          293.09,
          294.443,
          295.802,
          297.167,
          298.539,
          299.917,
          301.301,
          302.692,
          304.089,
          305.493,
          306.903,
          308.32,
          309.743,
          311.172,
          312.609,
          314.052,
          315.501,
          316.958,
          318.421,
          319.89,
          321.367,
          322.85,
          324.34,
          325.838,
          327.342,
          328.853,
          330.37,
          331.895,
          333.427,
          334.966,
          336.512,
          338.066,
          339.626,
          341.194,
          342.769,
          344.351,
          345.94,
          347.537,
          349.141,
          350.753,
          352.372,
          353.998,
          355.632,
          357.274,
          358.923,
          360.58,
          362.244,
          363.916,
          365.596,
          367.283,
          368.979,
          370.682,
          372.393,
          374.112,
          375.838,
          377.573,
          379.316,
          381.067,
          382.826,
          384.593,
          386.368,
          388.151,
          389.943,
          391.743,
          393.551,
          395.368,
          397.193,
          399.026,
          400.868,
          402.718,
          404.577,
          406.444,
          408.32,
          410.205,
          412.099,
          414.001,
          415.912,
          417.831,
          419.76,
          421.698,
          423.644,
          425.6,
          427.564,
          429.538,
          431.52,
          433.512,
          435.513,
          437.523,
          439.543,
          441.572,
          443.61,
          445.657,
          447.714,
          449.781,
          451.857,
          453.943,
          456.038,
          458.143,
          460.258,
          462.382,
          464.517,
          466.661,
          468.815,
          470.979,
          473.153,
          475.336,
          477.531,
          479.735,
          481.949,
          484.174,
          486.408,
          488.654,
          490.909,
          493.175,
          495.452,
          497.738
        ],
        [
          0.00927,
          0.00932,
          0.00936,
          0.0094,
          0.00945,
          0.00949,
          0.00953,
          0.00958,
          0.00962,
          0.00967,
          0.00971,
          0.00975,
          0.0098,
          0.00985,
          0.00989,
          0.00994,
          0.00998,
          0.01003,
          0.01007,
          0.01012,
          0.01017,
          0.01021,
          0.01026,
          0.01031,
          0.01036,
          0.0104,
          0.01045,
          0.0105,
          0.01055,
          0.0106,
          0.01065,
          0.0107,
          0.01075,
          0.01079,
          0.01084,
          0.01089,
          0.01095,
          0.011,
          0.01105,
          0.0111,
          0.01115,
          0.0112,
          0.01125,
          0.0113,
          0.01136,
          0.01141,
          0.01146,
          0.01151,
          0.01157,
          0.01162,
          0.01167,
          0.01173,
          0.01178,
          0.01184,
          0.01189,
          0.01195,
          0.012,
          0.01206,
          0.01211,
          0.01217,
          0.01222,
          0.01228,
          0.01234,
          0.01239,
          0.01245,
          0.01251,
          0.01257,
          0.01262,
          0.01268,
          0.01274,
          0.0128,
          0.01286,
          0.01292,
          0.01298,
          0.01304,
          0.0131,
          0.01316,
          0.01322,
          0.01328,
          0.01334,
          0.0134,
          0.01347,
          0.01353,
          0.01359,
          0.01365,
          0.01372,
          0.01378,
          0.01384,
          0.01391,
          0.01397,
          0.01404,
          0.0141,
          0.01417,
          0.01423,
          0.0143,
          0.01436,
          0.01443,
          0.01449,
          0.01456,
          0.01463,
          0.0147,
          0.01476,
          0.01483,
          0.0149,
          0.01497,
          0.01504,
          0.01511,
          0.01518,
          0.01525,
          0.01532,
          0.01539,
          0.01546,
          0.01553,
          0.0156,
          0.01568,
          0.01575,
          0.01582,
          0.01589,
          0.01597,
          0.01604,
          0.01611,
          0.01619,
          0.01626,
          0.01634,
          0.01641,
          0.01649,
          0.01657,
          0.01664,
          0.01672,
          0.0168,
          0.01687,
          0.01695,
          0.01703,
          0.01711,
          0.01719,
          0.01727,
          0.01735,
          0.01743,
          0.01751,
          0.01759,
          0.01767,
          0.01775,
          0.01783,
          0.01792,
          0.018,
          0.01808,
          0.01816,
          0.01825,
          0.01833,
          0.01842,
          0.0185,
          0.01859,
          0.01867,
          0.01876,
          0.01885,
          0.01893,
          0.01902,
          0.01911,
          0.0192,
          0.01928,
          0.01937,
          0.01946,
          0.01955,
          0.01964,
          0.01973,
          0.01983,
          0.01992,
          0.02001,
          0.0201,
          0.02019,
          0.02029,
          0.02038,
          0.02047,
          0.02057,
          0.02066,
          0.02076,
          0.02086,
          0.02095,
          0.02105,
          0.02115,
          0.02124,
          0.02134,
          0.02144,
          0.02154,
          0.02164,
          0.02174,
          0.02184,
          0.02194,
          0.02204,
          0.02214,
          0.02224,
          0.02235,
          0.02245,
          0.02255,
          0.02266,
          0.02276,
          0.02287,
          0.02297,
          0.02308,
          0.02319,
          0.02329,
          0.0234,
          0.02351,
          0.02362,
          0.02373,
          0.02384,
          0.02395,
          0.02406,
          0.02417,
          0.02428,
          0.02439,
          0.0245,
          0.02462,
          0.02473,
          0.02484,
          0.02496,
          0.02507,
          0.02519,
          0.02531,
          0.02542,
          0.02554,
          0.02566,
          0.02578,
          0.0259,
          0.02601,
          0.02613,
          0.02626,
          0.02638,
          0.0265,
          0.02662,
          0.02674,
          0.02687,
          0.02699,
          0.02712,
          0.02724,
          0.02737,
          0.02749,
          0.02762,
          0.02775,
          0.02788,
          0.028,
          0.02813,
          0.02826,
          0.02839,
          0.02852,
          0.02866,
          0.02879,
          0.02892,
          0.02905,
          0.02919,
          0.02932,
          0.02946,
          0.02959,
          0.02973,
          0.02987,
          0.03001,
          0.03015,
          0.03028,
          0.03042,
          0.03056,
          0.03071,
          0.03085,
          0.03099,
          0.03113,
          0.03128,
          0.03142,
          0.03157,
          0.03171,
          0.03186,
          0.032,
          0.03215,
          0.0323,
          0.03245,
          0.0326,
          0.03275,
          0.0329,
          0.03305,
          0.03321,
          0.03336,
          0.03351,
          0.03367,
          0.03382,
          0.03398,
          0.03414,
          0.03429,
          0.03445,
          0.03461,
          0.03477,
          0.03493,
          0.03509,
          0.03525,
          0.03542,
          0.03558,
          0.03575,
          0.03591,
          0.03608,
          0.03624,
          0.03641,
          0.03658,
          0.03675,
          0.03692,
          0.03709,
          0.03726,
          0.03743,
          0.0376,
          0.03778,
          0.03795,
          0.03813,
          0.0383,
          0.03848,
          0.03866,
          0.03883,
          0.03901,
          0.03919,
          0.03937,
          0.03956,
          0.03974,
          0.03992,
          0.04011,
          0.04029,
          0.04048,
          0.04066,
          0.04085,
          0.04104,
          0.04123,
          0.04142,
          0.04161,
          0.0418,
          0.042,
          0.04219,
          0.04239,
          0.04258,
          0.04278,
          0.04298,
          0.04317,
          0.04337,
          0.04357,
          0.04377,
          0.04398,
          0.04418,
          0.04438,
          0.04459,
          0.04479,
          0.045,
          0.04521,
          0.04542,
          0.04563,
          0.04584,
          0.04605,
          0.04626,
          0.04647,
          0.04669,
          0.0469,
          0.04712,
          0.04734,
          0.04756,
          0.04778,
          0.048,
          0.04822,
          0.04844,
          0.04866,
          0.04889,
          0.04912,
          0.04934,
          0.04957,
          0.0498,
          0.05003,
          0.05026,
          0.05049,
          0.05072,
          0.05096,
          0.05119,
          0.05143,
          0.05167,
          0.05191,
          0.05215,
          0.05239,
          0.05263,
          0.05287,
          0.05311,
          0.05336,
          0.05361,
          0.05385,
          0.0541,
          0.05435,
          0.0546,
          0.05486,
          0.05511,
          0.05536,
          0.05562,
          0.05587,
          0.05613,
          0.05639,
          0.05665,
          0.05691,
          0.05718,
          0.05744,
          0.05771,
          0.05797,
          0.05824,
          0.05851,
          0.05878,
          0.05905,
          0.05932,
          0.0596,
          0.05987,
          0.06015,
          0.06042,
          0.0607,
          0.06098,
          0.06127,
          0.06155,
          0.06183,
          0.06212,
          0.0624,
          0.06269,
          0.06298,
          0.06327,
          0.06356,
          0.06386,
          0.06415,
          0.06445,
          0.06475,
          0.06505,
          0.06535,
          0.06565,
          0.06595,
          0.06625,
          0.06656,
          0.06687,
          0.06718,
          0.06749,
          0.0678,
          0.06811,
          0.06843,
          0.06874,
          0.06906,
          0.06938,
          0.0697,
          0.07002,
          0.07034,
          0.07067,
          0.07099,
          0.07132,
          0.07165,
          0.07198,
          0.07231,
          0.07265,
          0.07298,
          0.07332,
          0.07366,
          0.074,
          0.07434,
          0.07468,
          0.07503,
          0.07537,
          0.07572,
          0.07607,
          0.07642,
          0.07677,
          0.07713,
          0.07748,
          0.07784,
          0.0782,
          0.07856,
          0.07893,
          0.07929,
          0.07966,
          0.08002,
          0.08039,
          0.08076,
          0.08114,
          0.08151,
          0.08189,
          0.08227,
          0.08264,
          0.08303,
          0.08341,
          0.08379,
          0.08418,
          0.08457,
          0.08496,
          0.08535,
          0.08575,
          0.08614,
          0.08654,
          0.08694,
          0.08734,
          0.08774,
          0.08815,
          0.08856,
          0.08896,
          0.08938,
          0.08979,
          0.0902,
          0.09062,
          0.09104,
          0.09146,
          0.09188,
          0.0923,
          0.09273,
          0.09316,
          0.09359,
          0.09402,
          0.09445,
          0.09489,
          0.09533,
          0.09577,
          0.09621,
          0.09665,
          0.0971,
          0.09755,
          0.098,
          0.09845,
          0.0989,
          0.09936,
          0.09982,
          0.10028,
          0.10074,
          0.10121,
          0.10168,
          0.10215,
          0.10262,
          0.10309,
          0.10357,
          0.10404,
          0.10452,
          0.10501,
          0.10549,
          0.10598,
          0.10647,
          0.10696,
          0.10745,
          0.10795,
          0.10845,
          0.10895,
          0.10945,
          0.10996,
          0.11046,
          0.11097,
          0.11149,
          0.112,
          0.11252,
          0.11304,
          0.11356,
          0.11408,
          0.11461,
          0.11514,
          0.11567,
          0.1162,
          0.11674,
          0.11728,
          0.11782,
          0.11836,
          0.11891,
          0.11946,
          0.12001,
          0.12056,
          0.12112,
          0.12168,
          0.12224,
          0.12281,
          0.12337,
          0.12394,
          0.12451,
          0.12509,
          0.12567,
          0.12625,
          0.12683,
          0.12741,
          0.128,
          0.12859,
          0.12919,
          0.12978,
          0.13038,
          0.13098,
          0.13159,
          0.1322,
          0.13281,
          0.13342,
          0.13403,
          0.13465,
          0.13528,
          0.1359,
          0.13653,
          0.13716,
          0.13779,
          0.13843,
          0.13906,
          0.13971,
          0.14035,
          0.141,
          0.14165,
          0.1423,
          0.14296,
          0.14362,
          0.14428,
          0.14495,
          0.14562,
          0.14629,
          0.14697,
          0.14764,
          0.14833,
          0.14901,
          0.1497,
          0.15039,
          0.15108,
          0.15178,
          0.15248,
          0.15319,
          0.15389,
          0.1546,
          0.15532,
          0.15603,
          0.15675,
          0.15748,
          0.1582,
          0.15893,
          0.15967,
          0.1604,
          0.16115,
          0.16189,
          0.16264,
          0.16339,
          0.16414,
          0.1649,
          0.16566,
          0.16642,
          0.16719,
          0.16796,
          0.16874,
          0.16952,
          0.1703,
          0.17109,
          0.17188,
          0.17267,
          0.17347,
          0.17427,
          0.17507,
          0.17588,
          0.17669,
          0.17751,
          0.17833,
          0.17915,
          0.17998,
          0.18081,
          0.18164,
          0.18248,
          0.18332,
          0.18417,
          0.18502,
          0.18587,
          0.18673,
          0.18759,
          0.18846,
          0.18933,
          0.1902,
          0.19108,
          0.19196,
          0.19285,
          0.19374,
          0.19463,
          0.19553,
          0.19643,
          0.19734,
          0.19825,
          0.19917,
          0.20009,
          0.20101,
          0.20194,
          0.20287,
          0.20381,
          0.20475,
          0.20569,
          0.20664,
          0.2076,
          0.20855,
          0.20952,
          0.21048,
          0.21145,
          0.21243,
          0.21341,
          0.2144,
          0.21539,
          0.21638,
          0.21738,
          0.21838,
          0.21939,
          0.2204,
          0.22142,
          0.22244,
          0.22347,
          0.2245,
          0.22554,
          0.22658,
          0.22762,
          0.22867,
          0.22973,
          0.23079,
          0.23186,
          0.23293,
          0.234,
          0.23508,
          0.23617,
          0.23726,
          0.23835,
          0.23945,
          0.24056,
          0.24167,
          0.24278,
          0.2439,
          0.24503,
          0.24616,
          0.2473,
          0.24844,
          0.24958,
          0.25074,
          0.25189,
          0.25306,
          0.25422,
          0.2554,
          0.25658,
          0.25776,
          0.25895,
          0.26015,
          0.26135,
          0.26255,
          0.26376,
          0.26498,
          0.26621,
          0.26743,
          0.26867,
          0.26991,
          0.27115,
          0.27241,
          0.27366,
          0.27493,
          0.2762,
          0.27747,
          0.27875,
          0.28004,
          0.28133,
          0.28263,
          0.28393,
          0.28524,
          0.28656,
          0.28788,
          0.28921,
          0.29055,
          0.29189,
          0.29324,
          0.29459,
          0.29595,
          0.29731,
          0.29869,
          0.30007,
          0.30145,
          0.30284,
          0.30424,
          0.30564,
          0.30706,
          0.30847,
          0.3099,
          0.31133,
          0.31276,
          0.31421,
          0.31566,
          0.31711,
          0.31858,
          0.32005,
          0.32153,
          0.32301,
          0.3245,
          0.326,
          0.3275,
          0.32902,
          0.33053,
          0.33206,
          0.33359,
          0.33513,
          0.33668,
          0.33823,
          0.33979,
          0.34136,
          0.34294,
          0.34452,
          0.34611,
          0.34771,
          0.34931,
          0.35093,
          0.35255,
          0.35417,
          0.35581,
          0.35745,
          0.3591,
          0.36076,
          0.36242,
          0.3641,
          0.36578,
          0.36747,
          0.36916,
          0.37087,
          0.37258,
          0.3743,
          0.37602,
          0.37776,
          0.3795,
          0.38126,
          0.38302,
          0.38478,
          0.38656,
          0.38834,
          0.39014,
          0.39194,
          0.39375,
          0.39556,
          0.39739,
          0.39922,
          0.40107,
          0.40292,
          0.40478,
          0.40665,
          0.40852,
          0.41041,
          0.4123,
          0.41421,
          0.41612,
          0.41804,
          0.41997,
          0.42191,
          0.42385,
          0.42581,
          0.42778,
          0.42975,
          0.43173,
          0.43373,
          0.43573,
          0.43774,
          0.43976,
          0.44179,
          0.44383,
          0.44588,
          0.44794,
          0.45,
          0.45208,
          0.45417,
          0.45626,
          0.45837,
          0.46049,
          0.46261,
          0.46475,
          0.46689,
          0.46905,
          0.47121,
          0.47339,
          0.47557,
          0.47777,
          0.47997,
          0.48219,
          0.48441,
          0.48665,
          0.4889,
          0.49115,
          0.49342,
          0.4957,
          0.49799,
          0.50028,
          0.50259,
          0.50491,
          0.50724,
          0.50958,
          0.51194,
          0.5143,
          0.51667,
          0.51906,
          0.52145,
          0.52386,
          0.52628,
          0.52871,
          0.53115,
          0.5336,
          0.53606,
          0.53854,
          0.54102,
          0.54352,
          0.54603,
          0.54855,
          0.55108,
          0.55363,
          0.55618,
          0.55875,
          0.56133,
          0.56392,
          0.56652,
          0.56914,
          0.57176,
          0.5744,
          0.57705,
          0.57972,
          0.58239,
          0.58508,
          0.58778,
          0.5905,
          0.59322,
          0.59596,
          0.59871,
          0.60147,
          0.60425,
          0.60704,
          0.60984,
          0.61266,
          0.61548,
          0.61832,
          0.62118,
          0.62405,
          0.62693,
          0.62982,
          0.63273,
          0.63565,
          0.63858,
          0.64153,
          0.64449,
          0.64747,
          0.65045,
          0.65346,
          0.65647,
          0.6595,
          0.66255,
          0.6656,
          0.66868,
          0.67176,
          0.67486,
          0.67798,
          0.68111,
          0.68425,
          0.68741,
          0.69058,
          0.69377,
          0.69697,
          0.70019,
          0.70342,
          0.70667,
          0.70993,
          0.71321,
          0.7165,
          0.71981,
          0.72313,
          0.72647,
          0.72982,
          0.73319,
          0.73657,
          0.73997,
          0.74339,
          0.74682,
          0.75027,
          0.75373,
          0.75721,
          0.76071,
          0.76422,
          0.76774,
          0.77129,
          0.77485,
          0.77842,
          0.78202,
          0.78563,
          0.78925,
          0.7929,
          0.79656,
          0.80023,
          0.80393,
          0.80764,
          0.81137,
          0.81511,
          0.81887,
          0.82265,
          0.82645,
          0.83026,
          0.8341,
          0.83795,
          0.84181,
          0.8457,
          0.8496,
          0.85353,
          0.85746,
          0.86142,
          0.8654,
          0.86939,
          0.87341,
          0.87744,
          0.88149,
          0.88556,
          0.88964,
          0.89375,
          0.89788,
          0.90202,
          0.90618,
          0.91037,
          0.91457,
          0.91879,
          0.92303,
          0.92729,
          0.93157,
          0.93587,
          0.94019,
          0.94453,
          0.94889,
          0.95327,
          0.95767,
          0.96209,
          0.96653,
          0.97099,
          0.97548,
          0.97998,
          0.9845,
          0.98905,
          0.99361,
          0.9982,
          1.0028,
          1.00743,
          1.01208,
          1.01675,
          1.02145,
          1.02616,
          1.0309,
          1.03566,
          1.04044,
          1.04524,
          1.05006,
          1.05491,
          1.05978,
          1.06467,
          1.06959,
          1.07452,
          1.07948,
          1.08447,
          1.08947,
          1.0945,
          1.09955,
          1.10463,
          1.10973,
          1.11485,
          1.11999,
          1.12516,
          1.13036,
          1.13558,
          1.14082,
          1.14608
        ],
        [
          4.34404,
          3.70273,
          3.06635,
          3.91284,
          4.06534,
          2.20138,
          5.06291,
          4.31554,
          1.83991,
          5.81204,
          2.41151,
          2.42869,
          2.56948,
          4.56329,
          3.52278,
          3.78532,
          3.64694,
          2.8864,
          3.63557,
          3.26699,
          4.48894,
          5.04819,
          3.85347,
          4.04251,
          6.46769,
          5.22668,
          4.8595,
          4.94748,
          9.01765,
          8.13521,
          9.50537,
          9.50914,
          14.508,
          15.5825,
          19.4608,
          28.3492,
          31.4724,
          59.5253,
          86.3792,
          104.054,
          132.628,
          128.565,
          110.189,
          77.5298,
          43.8535,
          24.6566,
          16.6386,
          11.9989,
          9.72062,
          7.55447,
          7.05342,
          7.70469,
          8.1738,
          9.48584,
          12.7722,
          7.30528,
          9.95546,
          7.86053,
          5.12462,
          3.9498,
          3.03418,
          4.32656,
          4.96529,
          3.28028,
          3.46858,
          4.05408,
          5.14898,
          3.90989,
          2.84649,
          2.89216,
          7.23887,
          4.87351,
          4.75068,
          7.12892,
          5.00992,
          3.71157,
          4.69652,
          4.54707,
          4.36485,
          5.13369,
          6.10205,
          7.07243,
          3.83528,
          8.98393,
          8.97113,
          7.38296,
          10.5016,
          10.0757,
          14.1989,
          14.7522,
          18.8769,
          25.4557,
          30.7127,
          35.4248,
          45.1047,
          56.5881,
          84.4761,
          116.907,
          204.093,
          285.032,
          365.456,
          335.757,
          247.798,
          146.764,
          60.9976,
          30.5188,
          21.0693,
          18.0272,
          10.1959,
          9.48793,
          7.84222,
          5.91278,
          9.36313,
          6.58482,
          7.33836,
          7.63469,
          11.2262,
          17.2993,
          16.8863,
          22.8718,
          36.7853,
          57.3831,
          96.3492,
          109.228,
          88.3609,
          52.8693,
          35.6639,
          18.7554,
          11.8408,
          13.2768,
          11.9648,
          6.14593,
          6.2822,
          4.56386,
          4.16759,
          4.1541,
          5.51651,
          5.43716,
          3.52292,
          4.74633,
          2.71341,
          2.4731,
          3.85795,
          6.12806,
          5.54621,
          5.49189,
          3.09901,
          3.80463,
          3.97314,
          5.60941,
          6.51421,
          5.39968,
          6.34467,
          5.9123,
          5.56074,
          5.34877,
          7.98737,
          10.1341,
          10.0941,
          10.7057,
          16.7884,
          17.7469,
          22.2753,
          33.8788,
          52.057,
          65.7098,
          102.023,
          146.134,
          204.094,
          234.397,
          228.255,
          184.512,
          113.823,
          79.7353,
          51.7789,
          37.6456,
          32.586,
          29.6747,
          29.943,
          34.8778,
          43.0488,
          49.2566,
          49.0634,
          37.6329,
          24.2095,
          15.9886,
          10.1244,
          8.01803,
          8.63975,
          8.14543,
          7.85573,
          10.1624,
          8.75206,
          7.37887,
          9.17538,
          7.44375,
          7.6701,
          7.78316,
          9.44227,
          12.219,
          15.6113,
          18.8377,
          21.7928,
          12.0106,
          9.24687,
          4.66298,
          4.75611,
          4.98263,
          4.28418,
          5.24068,
          3.48583,
          3.74992,
          5.15268,
          4.28757,
          3.77442,
          4.72013,
          6.06838,
          5.46046,
          5.5953,
          8.23676,
          9.49306,
          11.3418,
          13.6856,
          15.8153,
          18.6303,
          22.5588,
          30.2284,
          44.5693,
          68.8923,
          113.579,
          221.207,
          330.952,
          304.92,
          168.616,
          63.2949,
          29.4725,
          24.5945,
          27.2462,
          33.0207,
          44.7096,
          63.106,
          97.0437,
          152.705,
          264.993,
          422.672,
          440.959,
          280.29,
          123.898,
          58.6178,
          29.7134,
          20.4576,
          18.5198,
          14.3493,
          14.9282,
          11.4516,
          8.99143,
          8.26776,
          7.01196,
          8.05733,
          7.37183,
          8.18952,
          8.62298,
          7.06591,
          7.17364,
          7.63185,
          7.96231,
          10.2319,
          11.9058,
          12.6299,
          9.87364,
          12.5102,
          12.1654,
          11.9719,
          13.1111,
          10.2273,
          13.5765,
          12.3733,
          18.2382,
          28.259,
          39.6954,
          36.2123,
          21.6974,
          8.0263,
          5.49173,
          5.36748,
          4.4073,
          6.66213,
          6.83526,
          9.0821,
          13.5356,
          20.4837,
          36.9473,
          45.4089,
          33.0338,
          21.6769,
          12.8961,
          11.4266,
          13.1484,
          20.2321,
          30.6289,
          60.3662,
          96.6873,
          82.7804,
          35.7502,
          14.9784,
          10.2252,
          13.3316,
          15.0294,
          22.4857,
          24.3558,
          18.719,
          9.27189,
          6.34016,
          3.78224,
          4.01988,
          3.38295,
          2.85586,
          4.46905,
          2.76234,
          3.81948,
          3.66445,
          6.37533,
          6.67336,
          9.15113,
          14.5404,
          21.6311,
          25.4448,
          24.2882,
          16.7136,
          10.937,
          10.6263,
          11.8309,
          11.7801,
          15.9216,
          21.7464,
          31.4156,
          45.6448,
          67.6878,
          103.041,
          166.432,
          280.879,
          328.448,
          209.774,
          71.5672,
          29.2653,
          18.6503,
          13.6305,
          12.2032,
          9.82363,
          12.1517,
          12.8104,
          13.2873,
          13.4108,
          17.5997,
          26.5768,
          37.5074,
          41.9648,
          52.9218,
          83.5409,
          167.888,
          208.028,
          120.425,
          39.9157,
          11.2767,
          7.15542,
          5.2483,
          4.74952,
          3.56374,
          6.05922,
          4.3318,
          3.51059,
          5.31198,
          5.13186,
          8.44794,
          8.77263,
          13.4816,
          17.2904,
          34.1328,
          52.9586,
          57.3795,
          42.154,
          52.1553,
          111.219,
          144.711,
          84.6249,
          42.8432,
          26.9662,
          19.7771,
          17.6748,
          29.2125,
          42.1893,
          37.4845,
          20.4048,
          7.21585,
          4.60351,
          3.29018,
          3.71251,
          3.4595,
          4.7131,
          5.81597,
          5.75485,
          6.70464,
          7.49898,
          7.09343,
          7.86849,
          7.32826,
          8.07924,
          8.34626,
          11.9912,
          14.9267,
          13.3933,
          8.14082,
          7.37872,
          5.91311,
          7.76255,
          8.24689,
          7.84841,
          8.09014,
          10.6942,
          23.8897,
          33.8285,
          23.6958,
          12.2386,
          10.5906,
          9.43271,
          7.72236,
          4.66709,
          3.92366,
          3.4322,
          2.71116,
          3.12053,
          2.53898,
          4.34467,
          9.52362,
          16.6937,
          11.0864,
          5.38891,
          4.42638,
          6.26089,
          9.34457,
          15.5335,
          23.6634,
          41.8918,
          55.8281,
          24.0051,
          8.63803,
          6.79767,
          10.9845,
          16.4296,
          28.6893,
          55.4222,
          99.5064,
          71.8585,
          24.674,
          9.49636,
          8.59326,
          12.3453,
          17.7074,
          23.9616,
          48.1369,
          113.488,
          147.992,
          61.3123,
          32.8815,
          40.3671,
          76.5402,
          132.68,
          91.409,
          58.1379,
          86.6199,
          113.7,
          142.232,
          109.833,
          35.7714,
          12.38,
          5.51092,
          4.64743,
          2.43942,
          2.16128,
          2.35572,
          2.1458,
          2.00737,
          1.88432,
          1.85409,
          3.10818,
          2.18133,
          2.74654,
          4.00118,
          4.83054,
          6.55232,
          7.37045,
          8.38479,
          11.5429,
          16.1102,
          28.0741,
          59.8532,
          85.3199,
          40.848,
          13.5252,
          8.65746,
          9.15,
          7.11385,
          8.36742,
          9.02176,
          7.9237,
          12.817,
          19.9923,
          30.2218,
          53.1691,
          88.654,
          50.7712,
          19.6069,
          19.8028,
          23.93,
          18.4488,
          13.7793,
          26.3814,
          40.2219,
          14.4265,
          9.03229,
          10.8161,
          7.6485,
          14.1911,
          16.302,
          8.67133,
          5.35057,
          5.36727,
          4.11933,
          6.49674,
          7.14914,
          7.0221,
          7.14913,
          12.6527,
          22.0536,
          26.8161,
          21.2251,
          11.7791,
          14.8999,
          32.466,
          34.7099,
          19.4457,
          24.652,
          29.2195,
          24.8234,
          29.557,
          49.7912,
          29.2699,
          15.7513,
          24.0086,
          34.0551,
          34.1767,
          21.2644,
          29.5939,
          58.631,
          44.8822,
          18.2616,
          10.7364,
          11.5186,
          9.01676,
          6.3199,
          5.35538,
          8.07437,
          12.1816,
          9.55649,
          7.97172,
          12.1567,
          15.7013,
          27.7292,
          58.4992,
          78.3324,
          25.7003,
          25.579,
          36.7135,
          55.5287,
          84.0602,
          52.2135,
          11.8033,
          9.84372,
          15.1714,
          28.4974,
          52.0902,
          27.6791,
          16.6704,
          10.3826,
          4.03358,
          4.21664,
          5.19948,
          5.75505,
          8.82942,
          8.04883,
          8.32462,
          7.60433,
          3.30759,
          1.69205,
          2.64788,
          2.33461,
          3.46097,
          4.28254,
          4.43901,
          6.98831,
          10.2209,
          24.0378,
          45.4745,
          24.2311,
          3.85551,
          3.46113,
          5.38852,
          10.8014,
          8.26224,
          8.33126,
          6.6431,
          2.51098,
          1.21322,
          1.27391,
          1.56021,
          2.64011,
          3.86438,
          3.46325,
          6.17693,
          6.81474,
          10.0188,
          17.7881,
          34.0826,
          23.6946,
          11.7698,
          6.06623,
          8.00183,
          11.4638,
          19.86,
          11.9924,
          5.27626,
          5.00259,
          7.91898,
          15.661,
          31.8898,
          22.6938,
          10.5355,
          8.42138,
          7.52789,
          3.67884,
          3.36953,
          4.65052,
          7.95151,
          12.1023,
          11.2547,
          12.5786,
          3.57875,
          3.77769,
          6.08211,
          10.0184,
          8.88519,
          8.6186,
          8.57112,
          10.2015,
          14.5452,
          10.6782,
          19.1055,
          28.2071,
          13.8102,
          18.9339,
          15.5306,
          15.215,
          6.59338,
          4.33964,
          2.60076,
          5.66867,
          3.70182,
          5.65464,
          6.17702,
          5.84309,
          7.84377,
          6.72583,
          12.1947,
          19.6917,
          22.6824,
          41.3673,
          79.5919,
          32.7082,
          13.5999,
          16.9054,
          17.6754,
          26.7746,
          32.2563,
          18.3762,
          32.4721,
          53.883,
          14.6704,
          4.5528,
          2.86711,
          1.57672,
          2.09687,
          2.52527,
          4.11515,
          4.90704,
          9.47804,
          7.03853,
          3.73543,
          4.2356,
          5.20874,
          9.91076,
          11.446,
          10.679,
          7.41768,
          8.99905,
          16.0621,
          23.8755,
          20.0339,
          6.55732,
          8.24287,
          10.3199,
          13.0515,
          10.8661,
          14.8288,
          26.418,
          52.5134,
          32.7461,
          14.1112,
          20.9539,
          26.6816,
          22.2689,
          7.11972,
          5.47481,
          11.1077,
          7.21956,
          6.34586,
          5.72634,
          5.17529,
          4.12189,
          4.71788,
          5.98297,
          6.31301,
          6.0272,
          3.4136,
          3.84364,
          8.78813,
          21.2463,
          10.2587,
          3.03979,
          4.22984,
          3.3287,
          8.74364,
          19.6053,
          20.999,
          9.78401,
          5.60911,
          8.40693,
          15.5333,
          22.8521,
          24.3727,
          12.3917,
          6.72587,
          5.47722,
          9.76935,
          7.21635,
          10.396,
          19.1535,
          6.04843,
          6.06597,
          8.724,
          13.0662,
          17.4332,
          30.7601,
          12.9,
          9.05373,
          15.5692,
          33.1919,
          17.364,
          15.7247,
          13.2827,
          5.38783,
          6.58428,
          5.65284,
          6.8354,
          10.273,
          20.0243,
          17.41,
          3.6401,
          4.80688,
          5.55478,
          14.1928,
          25.4905,
          8.78744,
          9.96032,
          9.68224,
          6.66562,
          11.3635,
          10.5472,
          7.90825,
          8.21813,
          7.88554,
          9.72697,
          19.7816,
          13.7949,
          11.7317,
          16.948,
          20.765,
          20.8242,
          9.71915,
          6.16882,
          9.48414,
          17.8079,
          23.1711,
          20.9798,
          4.21438,
          5.27115,
          9.32834,
          9.59561,
          10.6931,
          13.592,
          6.11987,
          4.58412,
          7.33236,
          6.86754,
          5.48397,
          6.19467,
          4.10447,
          4.84068,
          3.51655,
          7.36539,
          11.5456,
          8.92959,
          8.15604,
          16.3747,
          31.2334,
          30.7364,
          20.5147,
          14.4177,
          10.2068,
          8.99336,
          10.2542,
          4.83203,
          6.414,
          2.84917,
          4.48573,
          3.10744,
          5.14047,
          10.272,
          16.0954,
          8.60228,
          8.62961,
          17.5529,
          11.8816,
          4.60642,
          5.70214,
          4.38532,
          4.92752,
          7.06544,
          6.57654,
          11.9433,
          18.9195,
          15.4059,
          8.29526,
          4.89492,
          7.41413,
          8.66944,
          8.183,
          10.8614,
          14.4396,
          17.72,
          27.0986,
          10.1328,
          9.05463,
          4.21626,
          9.19433,
          4.74075,
          2.97657,
          4.10007,
          4.96907,
          5.6107,
          6.2797,
          12.3389,
          13.4476,
          16.9774,
          25.6301,
          36.383,
          25.8434,
          15.7876,
          7.41639,
          9.81582,
          14.9422,
          22.027,
          13.6376,
          11.0594,
          9.68704,
          2.65137,
          3.48878,
          2.45814,
          2.3305,
          3.42881,
          5.78075,
          5.29546,
          4.08802,
          3.81887,
          5.9578,
          9.49819,
          11.9022,
          9.79982,
          3.94751,
          3.692,
          3.89009,
          6.92722,
          6.69575,
          6.5927,
          4.89983,
          4.12231,
          7.35008,
          15.8313,
          19.7324,
          10.0616,
          5.89599,
          5.23429,
          5.41092,
          7.01642,
          7.75246,
          9.85167,
          17.2242,
          25.7842,
          10.8455,
          4.97798,
          5.59585,
          8.07631,
          3.67565,
          3.49857,
          3.98399,
          2.12643,
          1.85292,
          1.51827,
          3.49062,
          4.9254,
          7.72328,
          4.54491,
          3.72009,
          3.33037,
          3.25232,
          6.26127,
          10.5605,
          12.075,
          2.51453,
          1.88126,
          2.74304,
          1.91929,
          3.0775,
          4.71344,
          10.2134,
          3.93234,
          5.13236,
          9.62678,
          6.84246,
          8.17169,
          4.46843,
          5.65966,
          7.43643,
          9.48654,
          12.7962,
          14.0853,
          11.6823,
          7.5221,
          4.18427,
          5.79462,
          10.469,
          9.11091,
          4.5426,
          4.71554,
          4.28756,
          8.39938,
          10.2904,
          10.5455,
          7.33963,
          4.41827,
          5.71125,
          4.65152,
          4.82368,
          5.20894,
          7.41402,
          6.95705,
          3.39813,
          2.47982,
          3.56286,
          4.813,
          3.85951,
          5.57208,
          4.92087,
          7.68017,
          6.64513,
          8.15792,
          3.6907,
          2.31178,
          3.95843,
          9.91165,
          10.0223,
          5.68442,
          5.69039,
          7.1942,
          6.47686,
          1.8463,
          2.77338,
          2.19439,
          3.43182,
          4.44258,
          3.37292,
          2.88956,
          3.52135,
          3.93302,
          3.18135,
          2.72556,
          2.72334,
          2.75145,
          4.96025,
          5.29233,
          7.22722,
          5.6297,
          2.3717,
          5.8879,
          5.72483,
          5.69628,
          4.2889,
          3.76988,
          5.66112,
          5.32889,
          3.63954,
          5.97689,
          5.87719,
          3.33335,
          2.83325,
          4.41593,
          6.73099,
          4.65916,
          4.754,
          3.22948,
          4.26355,
          7.55593,
          7.08335,
          4.00008,
          3.00409,
          4.40271,
          3.70687,
          5.83242,
          4.81364,
          5.19154,
          5.79853,
          6.09297,
          3.91146,
          2.59913,
          2.64328,
          5.08623,
          4.91354,
          5.99639
        ],
        [
          1.19815,
          1.08498,
          0.90688,
          1.04457,
          1.26251,
          0.8085,
          1.49761,
          1.18224,
          0.73411,
          1.51136,
          0.88567,
          1.00252,
          0.85994,
          1.56516,
          1.18848,
          1.07089,
          1.06678,
          0.89175,
          1.10213,
          0.99847,
          1.29954,
          1.29572,
          1.18054,
          1.25311,
          1.61984,
          1.39398,
          1.22783,
          1.23415,
          2.07798,
          1.76103,
          2.01556,
          1.71405,
          2.56577,
          2.42903,
          3.07552,
          4.11563,
          3.95935,
          6.80178,
          8.37083,
          8.08618,
          9.62723,
          8.99217,
          8.16216,
          7.04078,
          4.83342,
          3.38218,
          2.5636,
          2.09261,
          1.89113,
          1.44678,
          1.44115,
          1.54997,
          1.6578,
          1.72589,
          2.36071,
          1.47361,
          1.83027,
          1.49636,
          1.36737,
          1.13739,
          1.05672,
          1.16412,
          1.25462,
          1.1593,
          1.16393,
          1.24897,
          1.34325,
          1.19161,
          1.17006,
          1.12378,
          1.69516,
          1.37265,
          1.30948,
          1.70101,
          1.37263,
          1.12386,
          1.28213,
          1.24627,
          1.22551,
          1.33459,
          1.53459,
          1.47938,
          1.12418,
          1.69752,
          1.6469,
          1.44234,
          1.84623,
          1.77962,
          2.06012,
          2.10831,
          2.35506,
          2.82786,
          3.0073,
          3.17814,
          3.61777,
          3.90413,
          5.26549,
          6.44615,
          9.76467,
          11.6858,
          13.35,
          12.0461,
          9.96733,
          7.46619,
          4.32204,
          2.91299,
          2.4654,
          2.43699,
          1.52389,
          1.66214,
          1.39428,
          1.10211,
          1.70966,
          1.27361,
          1.25777,
          1.42456,
          1.65953,
          2.2199,
          2.06988,
          2.54261,
          3.13776,
          4.17597,
          5.63561,
          6.09001,
          5.20502,
          4.02902,
          3.34225,
          2.52438,
          2.10126,
          2.41385,
          2.33932,
          1.33309,
          1.44127,
          1.23351,
          1.09521,
          1.22064,
          1.50268,
          1.40628,
          1.04266,
          1.24023,
          0.95085,
          0.95243,
          1.06623,
          1.50219,
          1.63632,
          1.39164,
          0.98953,
          1.0005,
          1.02019,
          1.25715,
          1.51071,
          1.14673,
          1.23075,
          1.30992,
          1.15356,
          1.11916,
          1.39183,
          1.52588,
          1.44379,
          1.54243,
          2.10241,
          2.11514,
          2.48794,
          3.07284,
          4.15379,
          3.79067,
          3.68754,
          4.69656,
          5.90633,
          6.60492,
          6.27712,
          5.41302,
          4.0931,
          3.2839,
          2.58603,
          2.17,
          1.95967,
          1.90397,
          1.89498,
          2.02774,
          2.232,
          2.35835,
          2.3155,
          2.0692,
          1.70254,
          1.38356,
          1.16049,
          1.03551,
          1.07341,
          1.03646,
          1.04886,
          1.13833,
          1.04565,
          0.96174,
          1.00404,
          0.95158,
          0.9691,
          0.93265,
          0.97335,
          1.13922,
          1.26265,
          1.4163,
          1.54411,
          1.17187,
          1.02948,
          0.80931,
          0.74901,
          0.83926,
          0.72139,
          0.86991,
          0.66715,
          0.69857,
          0.80037,
          0.73505,
          0.71409,
          0.72065,
          0.84517,
          0.80453,
          0.79433,
          0.97666,
          1.01598,
          1.09187,
          1.23103,
          1.25862,
          1.38979,
          1.52249,
          1.76407,
          2.27459,
          3.09308,
          4.15948,
          6.58417,
          8.60715,
          8.22953,
          5.73547,
          2.93311,
          1.67479,
          1.45214,
          1.54935,
          1.68695,
          2.01989,
          2.57307,
          3.27728,
          4.31123,
          6.06079,
          8.28962,
          8.5236,
          6.35178,
          3.94378,
          2.76914,
          1.82595,
          1.54077,
          1.35915,
          1.23391,
          1.2508,
          1.09237,
          0.98275,
          0.8928,
          0.82777,
          0.9819,
          0.93498,
          0.97462,
          0.95148,
          0.89989,
          0.96183,
          1.07088,
          1.11857,
          1.24523,
          1.37543,
          1.47334,
          1.4323,
          1.45998,
          1.51299,
          1.48362,
          1.46048,
          1.33388,
          1.38471,
          1.28034,
          1.39085,
          1.67571,
          2.07058,
          1.90359,
          1.58331,
          0.8639,
          0.73027,
          0.74473,
          0.69594,
          0.7934,
          0.86401,
          0.91931,
          1.12435,
          1.38249,
          1.94273,
          2.17259,
          1.78203,
          1.5223,
          1.1945,
          1.10333,
          1.11848,
          1.47356,
          1.70532,
          2.51305,
          3.32493,
          3.08756,
          1.99026,
          1.27199,
          1.00462,
          1.16636,
          1.30301,
          1.62597,
          1.7489,
          1.50995,
          1.09975,
          0.89071,
          0.69816,
          0.72853,
          0.64422,
          0.52219,
          0.69485,
          0.48706,
          0.61049,
          0.5577,
          0.76988,
          0.80191,
          0.97953,
          1.25675,
          1.60033,
          1.73215,
          1.70797,
          1.39904,
          1.11128,
          1.07109,
          1.13079,
          1.00105,
          1.18904,
          1.40474,
          1.70324,
          2.14972,
          2.66803,
          3.51584,
          4.69459,
          6.62489,
          7.2913,
          5.54867,
          2.97347,
          1.78609,
          1.42472,
          1.24214,
          1.13795,
          1.0469,
          1.11287,
          1.11003,
          1.1013,
          1.04473,
          1.27952,
          1.5521,
          1.89291,
          2.0139,
          2.3361,
          2.94131,
          4.56934,
          5.2071,
          3.82751,
          2.23644,
          1.06605,
          0.85466,
          0.75273,
          0.74087,
          0.56928,
          0.90968,
          0.69008,
          0.58952,
          0.76228,
          0.69639,
          0.94325,
          0.87748,
          1.09128,
          1.20619,
          1.79054,
          2.34871,
          2.4842,
          2.05719,
          2.20889,
          3.60193,
          4.18009,
          3.06437,
          2.27232,
          1.89763,
          1.56742,
          1.41676,
          1.74496,
          2.10273,
          2.04645,
          1.55913,
          1.1042,
          0.99737,
          0.93602,
          0.9978,
          0.99991,
          1.0761,
          1.18411,
          1.24688,
          1.2762,
          1.34323,
          1.30033,
          1.20544,
          1.01639,
          0.94637,
          0.98291,
          1.17015,
          1.4237,
          1.41894,
          1.13258,
          0.99587,
          0.86407,
          0.88827,
          0.98179,
          0.91435,
          0.95642,
          1.0472,
          1.59805,
          1.94541,
          1.66777,
          1.22253,
          1.07528,
          1.03485,
          0.91686,
          0.70428,
          0.64638,
          0.62165,
          0.54198,
          0.52813,
          0.53439,
          0.66992,
          0.9344,
          1.28819,
          1.0673,
          0.69155,
          0.62733,
          0.74484,
          0.93546,
          1.19711,
          1.48628,
          2.10777,
          2.63289,
          1.6262,
          0.85164,
          0.74995,
          1.03046,
          1.30734,
          1.70007,
          2.42527,
          3.43575,
          2.98095,
          1.67039,
          0.90228,
          0.81178,
          1.05801,
          1.31623,
          1.47839,
          2.15391,
          3.6494,
          4.40736,
          2.63918,
          1.80532,
          1.97534,
          3.29258,
          4.97146,
          3.53045,
          2.32834,
          2.95771,
          3.35388,
          3.94706,
          3.6172,
          2.04524,
          1.20419,
          0.88113,
          0.75391,
          0.5634,
          0.49273,
          0.50588,
          0.46807,
          0.45766,
          0.44114,
          0.44153,
          0.51771,
          0.49436,
          0.51398,
          0.59579,
          0.62842,
          0.74827,
          0.81918,
          0.81943,
          0.93554,
          1.09852,
          1.41217,
          2.14476,
          2.74386,
          1.94297,
          1.05736,
          0.87791,
          0.8963,
          0.79726,
          0.89185,
          0.93612,
          0.82697,
          1.00566,
          1.23387,
          1.51565,
          2.00681,
          2.87021,
          2.08973,
          1.21276,
          1.27022,
          1.33219,
          1.12596,
          0.95307,
          1.32855,
          1.77933,
          1.06995,
          0.90979,
          1.02404,
          0.91708,
          1.13284,
          1.25553,
          0.9819,
          0.83367,
          0.77569,
          0.66682,
          0.73048,
          0.79114,
          0.758,
          0.71282,
          0.948,
          1.31989,
          1.56732,
          1.42026,
          1.00869,
          1.02242,
          1.55668,
          1.70058,
          1.32696,
          1.42728,
          1.4929,
          1.44797,
          1.49101,
          2.01422,
          1.5173,
          1.04608,
          1.28794,
          1.60737,
          1.70106,
          1.37548,
          1.63656,
          2.38768,
          2.14738,
          1.32642,
          1.21214,
          1.32724,
          1.20473,
          0.87156,
          0.70034,
          0.76525,
          0.96633,
          0.89011,
          0.7931,
          0.94788,
          1.03096,
          1.38253,
          2.11029,
          2.66683,
          1.53852,
          1.57795,
          1.94812,
          2.28081,
          2.81115,
          2.38858,
          1.14258,
          0.91279,
          1.10017,
          1.51439,
          2.17114,
          1.53651,
          1.1729,
          1.06191,
          0.72039,
          0.6175,
          0.70871,
          0.80041,
          1.02413,
          0.9534,
          0.838,
          0.83516,
          0.6645,
          0.5072,
          0.51268,
          0.53059,
          0.58246,
          0.65017,
          0.62211,
          0.76778,
          0.93129,
          1.45415,
          2.32009,
          1.69021,
          0.59995,
          0.51643,
          0.5937,
          0.8941,
          0.79847,
          0.74289,
          0.85024,
          0.44723,
          0.2941,
          0.34409,
          0.35695,
          0.42326,
          0.52049,
          0.53123,
          0.74971,
          0.84542,
          0.91459,
          1.17413,
          1.75755,
          1.60278,
          1.16736,
          0.75485,
          0.78902,
          0.90031,
          1.30269,
          1.17476,
          0.75677,
          0.66082,
          0.79111,
          1.04991,
          1.54586,
          1.49868,
          1.0379,
          0.93599,
          0.9321,
          0.62916,
          0.50755,
          0.59112,
          0.7719,
          1.00079,
          0.9718,
          1.09694,
          0.61848,
          0.53259,
          0.64408,
          0.89365,
          0.82775,
          0.86119,
          0.81153,
          0.83342,
          1.11725,
          0.8965,
          1.12576,
          1.45999,
          1.0556,
          1.167,
          1.26975,
          1.37386,
          1.02573,
          0.86751,
          0.70802,
          0.74172,
          0.53688,
          0.6663,
          0.71304,
          0.71579,
          0.82363,
          0.77632,
          1.05397,
          1.35882,
          1.39576,
          1.88809,
          2.89258,
          1.61573,
          1.10032,
          1.2947,
          1.15103,
          1.3744,
          1.84283,
          1.33006,
          1.823,
          2.48497,
          1.08997,
          0.63937,
          0.59826,
          0.59879,
          0.5475,
          0.58233,
          0.57378,
          0.61573,
          0.97304,
          0.90325,
          0.52702,
          0.52642,
          0.62411,
          0.83205,
          0.94158,
          1.06337,
          0.74929,
          0.80499,
          1.07505,
          1.46823,
          1.36264,
          0.82797,
          0.7748,
          0.95544,
          1.16365,
          0.92818,
          1.13241,
          1.59548,
          2.40928,
          2.04184,
          1.06121,
          1.4079,
          1.67662,
          1.48546,
          0.908,
          0.61278,
          0.94651,
          0.79801,
          0.62324,
          0.67084,
          0.74246,
          0.64956,
          0.57846,
          0.70846,
          0.82338,
          0.91793,
          0.60086,
          0.60586,
          0.87816,
          1.34718,
          1.06329,
          0.58768,
          0.62127,
          0.59666,
          0.82102,
          1.31054,
          1.65164,
          0.84997,
          0.64202,
          0.82983,
          1.06357,
          1.34037,
          1.40468,
          1.24277,
          0.95807,
          0.7125,
          0.93266,
          0.83131,
          0.87524,
          1.30772,
          0.69871,
          0.80829,
          1.03451,
          1.13222,
          1.24747,
          1.66083,
          1.07919,
          0.92535,
          1.30915,
          1.9481,
          1.26521,
          1.0665,
          1.19936,
          0.63306,
          0.70647,
          0.68041,
          0.75584,
          0.84262,
          1.1888,
          1.33991,
          0.62838,
          0.64048,
          0.59788,
          1.00457,
          1.55083,
          0.89564,
          0.86818,
          0.97202,
          0.71529,
          1.0141,
          1.04139,
          0.87154,
          0.78811,
          0.77901,
          0.79926,
          1.22571,
          1.18734,
          0.91892,
          1.11896,
          1.24868,
          1.29128,
          0.88416,
          0.6891,
          0.92035,
          1.27734,
          1.34465,
          1.32546,
          0.61532,
          0.71054,
          0.91743,
          1.05313,
          0.8867,
          1.03518,
          0.83935,
          0.707,
          0.88443,
          0.88708,
          0.73928,
          0.76114,
          0.56851,
          0.63976,
          0.54969,
          0.77107,
          1.03104,
          0.97962,
          0.84999,
          1.17724,
          1.67568,
          1.84486,
          1.29394,
          1.00944,
          0.96622,
          0.85784,
          1.00916,
          0.67228,
          0.77568,
          0.43754,
          0.5802,
          0.52282,
          0.61824,
          0.84876,
          1.07783,
          0.89028,
          0.78374,
          1.14016,
          1.20438,
          0.64437,
          0.8174,
          0.62786,
          0.67106,
          0.76515,
          0.8663,
          1.07333,
          1.26764,
          1.39787,
          0.82996,
          0.65059,
          0.8793,
          0.94577,
          0.78998,
          0.95006,
          1.2843,
          1.29418,
          1.67857,
          0.88132,
          0.86925,
          0.64569,
          0.9363,
          0.88892,
          0.5882,
          0.60878,
          0.73147,
          0.7031,
          0.7725,
          1.0859,
          1.23851,
          1.20571,
          1.45952,
          1.76911,
          1.60918,
          1.13364,
          0.86586,
          0.87228,
          1.11824,
          1.28147,
          1.21428,
          1.05107,
          1.08231,
          0.53472,
          0.53539,
          0.52493,
          0.58809,
          0.7151,
          0.80768,
          0.93547,
          0.71009,
          0.63494,
          0.72791,
          0.96629,
          0.91924,
          0.92499,
          0.75847,
          0.58299,
          0.70089,
          0.86824,
          0.9349,
          0.7593,
          0.78099,
          0.57637,
          0.72954,
          1.14077,
          1.3654,
          1.19524,
          0.69217,
          0.66527,
          0.82161,
          0.88464,
          0.85651,
          1.00084,
          1.2732,
          1.55141,
          1.20069,
          0.69301,
          0.7505,
          0.99768,
          0.64074,
          0.77483,
          0.79446,
          0.57874,
          0.43218,
          0.46945,
          0.60684,
          0.70999,
          0.88448,
          0.83089,
          0.74105,
          0.55859,
          0.54279,
          0.77709,
          0.9798,
          1.08207,
          0.51646,
          0.42073,
          0.55507,
          0.53002,
          0.62996,
          0.659,
          1.08151,
          0.59887,
          0.64028,
          0.88352,
          0.78089,
          0.98387,
          0.7754,
          0.72108,
          0.86468,
          0.91442,
          1.10189,
          1.35921,
          1.30595,
          1.02926,
          0.84207,
          0.90508,
          1.16506,
          1.28724,
          0.98051,
          0.94529,
          0.88751,
          1.24549,
          1.35547,
          1.16498,
          1.13146,
          0.79102,
          0.9749,
          0.76042,
          0.71815,
          0.78553,
          0.92178,
          0.85154,
          0.69626,
          0.56783,
          0.67045,
          0.79393,
          0.62327,
          0.80678,
          0.70191,
          0.79658,
          0.80325,
          0.91354,
          0.62319,
          0.45228,
          0.60255,
          0.92242,
          1.00194,
          0.73689,
          0.74621,
          0.76682,
          0.85075,
          0.44149,
          0.5172,
          0.53333,
          0.54652,
          0.7335,
          0.57201,
          0.50349,
          0.5819,
          0.59561,
          0.63025,
          0.56848,
          0.537,
          0.48099,
          0.64007,
          0.70017,
          0.81612,
          0.79367,
          0.50569,
          0.73616,
          0.77399,
          0.72817,
          0.67252,
          0.66421,
          0.80533,
          0.82001,
          0.58096,
          0.77252,
          0.89317,
          0.6935,
          0.45934,
          0.56725,
          0.83063,
          0.62731,
          0.65021,
          0.52914,
          0.59092,
          0.76225,
          0.81371,
          0.76753,
          0.56056,
          0.64805,
          0.63398,
          0.78417,
          0.57676,
          0.62245,
          0.74018,
          0.85298,
          0.67677,
          0.53329,
          0.56254,
          0.77753,
          0.64437,
          0.73361
        ]
      ]
    }
  },
  "14149-007": {
    "reaction": {
      "1": {
        "x4_code": "(92-U-235(N,ABS),,ALF)",
        "0": {
          "code": [
            "92-U-235",
            [
              "N,ABS"
            ],
            ",,ALF"
          ],
          "type": null,
          "target": "92-U-235",
          "process": "N,ABS",
          "sf49": ",,ALF",
          "sf4": null,
          "sf5": null,
          "sf6": "ALF",
          "sf7": null,
          "sf8": null,
          "sf9": null
        },
        "type": null,
        "free_text": ""
      },
      "2": {
        "x4_code": "(92-U-235(N,G)92-U-236,,SIG)",
        "0": {
          "code": [
            "92-U-235",
            [
              "N,G"
            ],
            "92-U-236,,SIG"
          ],
          "type": null,
          "target": "92-U-235",
          "process": "N,G",
          "sf49": "92-U-236,,SIG",
          "sf4": "92-U-236",
          "sf5": null,
          "sf6": "SIG",
          "sf7": null,
          "sf8": null,
          "sf9": null
        },
        "type": null,
        "free_text": ""
      }
    },
    "extra_information": {
      "err-analys": {
        "2": [
          {
            "x4_code": "(DATA-ERR)",
            "free_txt": [
              " Total uncertainty which could not be",
              " separated to statistical and systematic uncertainties",
              " because of data correlations.",
              "Uncertainties will be updated after publication of a",
              " separate paper devoted to uncertainties."
            ]
          }
        ]
      },
      "monit-ref": {
        "2": [
          {
            "x4_code": "(,,3,ENDF/B-VII.1,,2011)",
            "free_txt": []
          }
        ]
      },
      "monitor": {
        "2": [
          {
            "x4_code": "(92-U-235(N,F),,SIG)",
            "free_txt": [
              " ENDF/B-VII.1 with broadening function of DANCE",
              " obtained by SAMMY"
            ]
          }
        ]
      },
      "status": {
        "2": [
          {
            "x4_code": "(TABLE)",
            "free_txt": [
              " Data sent by author (M.J.) corresponding to",
              " Fig.3+4 of Phys.Rev.Lett.109(2012)202506"
            ]
          }
        ]
      }
    },
    "common": {
      "heads": [
        "EN-NRM-MIN",
        "EN-NRM-MAX",
        "MONIT"
      ],
      "units": [
        "EV",
        "EV",
        "B*EV"
      ],
      "data": [
        [
          45.0
        ],
        [
          100.0
        ],
        [
          837.8
        ]
      ]
    },
    "data": {
      "heads": [
        "EN-MIN",
        "EN-MAX",
        "DATA      1",
        "DATA-ERR  1",
        "DATA      2",
        "DATA-ERR  2"
      ],
      "units": [
        "EV",
        "EV",
        "NO-DIM",
        "NO-DIM",
        "B",
        "B"
      ],
      "data": [
        [
          498.885,
          501.187,
          512.861,
          524.808,
          537.031,
          549.541,
          562.342,
          575.44,
          588.844,
          602.559,
          616.595,
          630.958,
          645.654,
          660.693,
          676.083,
          691.831,
          707.946,
          724.436,
          741.31,
          758.577,
          776.247,
          794.328,
          812.83,
          831.764,
          851.138,
          870.963,
          891.251,
          912.011,
          933.254,
          954.993,
          977.238,
          1000.0,
          1122.02,
          1258.92,
          1412.54,
          1584.9,
          1778.28,
          1995.26,
          2238.72,
          2511.88,
          2818.38,
          3162.28,
          3548.13,
          3981.07,
          4466.83,
          5011.87,
          5623.41,
          6309.58,
          7079.46,
          7943.29,
          8912.5,
          9999.97,
          12589.3,
          15848.9,
          19952.6,
          25118.8,
          31622.7,
          39810.7,
          50118.7,
          63095.8,
          79432.8,
          100000.0,
          158489.0,
          251189.0,
          398107.0,
          630958.0
        ],
        [
          501.187,
          512.861,
          524.808,
          537.031,
          549.541,
          562.342,
          575.44,
          588.844,
          602.559,
          616.595,
          630.958,
          645.654,
          660.693,
          676.083,
          691.831,
          707.946,
          724.436,
          741.31,
          758.577,
          776.247,
          794.328,
          812.83,
          831.764,
          851.138,
          870.963,
          891.251,
          912.011,
          933.254,
          954.993,
          977.238,
          1000.0,
          1122.02,
          1258.92,
          1412.54,
          1584.9,
          1778.28,
          1995.26,
          2238.72,
          2511.88,
          2818.38,
          3162.28,
          3548.13,
          3981.07,
          4466.83,
          5011.87,
          5623.41,
          6309.58,
          7079.46,
          7943.29,
          8912.5,
          9999.97,
          12589.3,
          15848.9,
          19952.6,
          25118.8,
          31622.7,
          39810.7,
          50118.7,
          63095.8,
          79432.8,
          100000.0,
          158489.0,
          251189.0,
          398107.0,
          630958.0,
          1000000.0
        ],
        [
          0.153539,
          0.182098,
          0.300176,
          0.395941,
          0.363818,
          0.264477,
          0.289062,
          0.338034,
          0.308578,
          0.226316,
          0.583998,
          0.834457,
          0.508957,
          0.323875,
          0.278325,
          0.279451,
          0.383222,
          0.587885,
          0.557991,
          0.326445,
          0.350351,
          0.427277,
          0.490262,
          0.474517,
          0.466096,
          0.438232,
          0.567235,
          0.615776,
          0.571395,
          0.693167,
          0.496437,
          0.564265,
          0.386765,
          0.335609,
          0.380302,
          0.339617,
          0.423453,
          0.462748,
          0.327196,
          0.359152,
          0.378309,
          0.399796,
          0.398878,
          0.34787,
          0.40592,
          0.295593,
          0.436209,
          0.399691,
          0.365252,
          0.46611,
          0.348935,
          0.397468,
          0.393536,
          0.362907,
          0.387126,
          0.367191,
          0.325162,
          0.374192,
          0.299889,
          0.339532,
          0.250355,
          0.254941,
          0.245619,
          0.170214,
          0.143714,
          0.109442
        ],
        [
          0.0339893,
          0.0160004,
          0.0208895,
          0.0245514,
          0.0229871,
          0.0242404,
          0.0202627,
          0.0225954,
          0.0216098,
          0.0206768,
          0.0361686,
          0.0419151,
          0.0353536,
          0.0230642,
          0.0210129,
          0.0241367,
          0.0271948,
          0.030148,
          0.0337618,
          0.0255231,
          0.0243399,
          0.0289711,
          0.0386933,
          0.0349112,
          0.0310682,
          0.0330316,
          0.0357267,
          0.0364785,
          0.0387713,
          0.0470133,
          0.0360876,
          0.0182754,
          0.0146875,
          0.0147608,
          0.016826,
          0.015992,
          0.0176779,
          0.0204695,
          0.0184171,
          0.0192667,
          0.0199235,
          0.0206294,
          0.021252,
          0.0204963,
          0.0233104,
          0.0210785,
          0.0282691,
          0.026253,
          0.0261646,
          0.0303836,
          0.0259274,
          0.0211563,
          0.0221479,
          0.0224769,
          0.0238307,
          0.0223394,
          0.0531691,
          0.0311834,
          0.0264954,
          0.0249016,
          0.0514676,
          0.0223772,
          0.0243418,
          0.0217391,
          0.0270141,
          0.0234804
        ],
        [
          2.61329,
          3.55298,
          4.99961,
          5.00055,
          5.28221,
          2.72231,
          4.05571,
          5.12371,
          4.88484,
          3.05826,
          4.94271,
          8.20161,
          3.73843,
          3.92845,
          4.12675,
          3.03716,
          3.86686,
          7.34986,
          5.19598,
          3.72374,
          4.24022,
          4.45654,
          3.31429,
          3.23729,
          4.07577,
          3.35424,
          4.70958,
          5.37209,
          4.22382,
          4.2607,
          3.39142,
          4.42334,
          3.38042,
          2.59591,
          2.37602,
          2.25792,
          2.68088,
          2.44318,
          1.72983,
          1.88963,
          1.84828,
          1.97268,
          1.85447,
          1.55634,
          1.61451,
          1.1678,
          1.56366,
          1.32518,
          1.14676,
          1.37565,
          1.05492,
          1.10672,
          1.04448,
          0.87814,
          0.86643,
          0.76678,
          0.64162,
          0.69416,
          0.53867,
          0.57786,
          0.39891,
          0.37764,
          0.32912,
          0.20986,
          0.16447,
          0.12408
        ],
        [
          0.57851,
          0.31219,
          0.34793,
          0.31007,
          0.33375,
          0.24951,
          0.2843,
          0.34249,
          0.34209,
          0.27941,
          0.30612,
          0.41197,
          0.25968,
          0.27976,
          0.31156,
          0.26233,
          0.27441,
          0.37692,
          0.31439,
          0.29114,
          0.29458,
          0.30217,
          0.26158,
          0.23817,
          0.27168,
          0.25283,
          0.29663,
          0.31824,
          0.2866,
          0.28898,
          0.24653,
          0.14326,
          0.12837,
          0.11417,
          0.10512,
          0.10632,
          0.11192,
          0.10807,
          0.09737,
          0.10137,
          0.09734,
          0.10179,
          0.09881,
          0.0917,
          0.09272,
          0.08327,
          0.10134,
          0.08704,
          0.08215,
          0.08967,
          0.07839,
          0.05891,
          0.05878,
          0.05439,
          0.05334,
          0.04665,
          0.10492,
          0.05785,
          0.04759,
          0.04238,
          0.08201,
          0.03315,
          0.03262,
          0.0268,
          0.03092,
          0.02662
        ]
      ]
    }
  }
}