{
  "entry": "30178",
  "last_updated": "2008-06-05",
  "number_of_revisions": "4",
  "histories": [
    {
      "x4_code": "(19720210R)",
      "free_txt": []
    },
    {
      "x4_code": "(19730820C)",
      "free_txt": [
        " Compiled in Exfor."
      ]
    },
    {
      "x4_code": "(19930113U)",
      "free_txt": [
        "HW. -Published references put in the",
        "appropriate subentries.-"
      ]
    },
    {
      "x4_code": "(20080208A)",
      "free_txt": [
        " BIB section updated"
      ]
    }
  ],
  "bib_record": {
    "title": "Total and scattering cross section measurements on Rb and Cs with fast neutrons",
    "authors": [
      {
        "name": "E.Barnard"
      },
      {
        "name": "N.Coetzee"
      },
      {
        "name": "J.A.M.De Villiers"
      },
      {
        "name": "D.Reitman"
      },
      {
        "name": "P.Van Der Merwe"
      }
    ],
    "institutes": [
      {
        "x4_code": "(3SAFPEL)",
        "free_txt": []
      }
    ],
    "references": [
      {
        "x4_code": "(R,PEL-191,43,196910)",
        "free_txt": [
          "Full detail.Tbls,figs.in Afrikaans"
        ],
        "publication_year": "1969",
        "pointer": "0"
      },
      {
        "x4_code": "(P,INDC(SEC)-35,197309)",
        "free_txt": [
          " To be published.Brief,no data"
        ],
        "publication_year": "1973",
        "pointer": "0"
      },
      {
        "x4_code": "(P,INDC(SAF)-4,17,1972)",
        "free_txt": [
          "Data being analyzed.Brf,no data"
        ],
        "publication_year": "1972",
        "pointer": "0"
      },
      {
        "x4_code": "(P,INDC(SAF)-3,7,197105)",
        "free_txt": [
          " Very brief,no data given"
        ],
        "publication_year": "1971",
        "pointer": "0"
      },
      {
        "x4_code": "(P,INDC(SEC)-18,170,197108)",
        "free_txt": [
          " Same as INDC(SAF)-3.No data"
        ],
        "publication_year": "1971",
        "pointer": "0"
      },
      {
        "x4_code": "(P,INDC(SAF)-2,197004)",
        "free_txt": [
          " Level energies only"
        ],
        "publication_year": "1970",
        "pointer": "0"
      },
      {
        "x4_code": "(P,INDC(SAF)-1,5,196905)",
        "free_txt": [
          " To be completed,no data given"
        ],
        "publication_year": "1969",
        "pointer": "0"
      }
    ],
    "facilities": [
      {
        "x4_code": "(VDG)",
        "free_txt": [
          " 3-MeV pulsed and bunched(Klystron) Van de Graaff"
        ],
        "pointer": "0"
      }
    ]
  },
  "reactions": {
    "002": {
      "0": {
        "x4_code": "(37-RB-0(N,TOT),,SIG)",
        "children": [
          {
            "code": [
              "37-RB-0",
              [
                "N,TOT"
              ],
              ",,SIG"
            ],
            "type": null,
            "target": "37-RB-0",
            "process": "N,TOT",
            "sf49": ",,SIG",
            "sf4": null,
            "sf5": null,
            "sf6": "SIG",
            "sf7": null,
            "sf8": null,
            "sf9": null
          }
        ],
        "type": null,
        "free_text": ""
      }
    },
    "003": {
      "0": {
        "x4_code": "(55-CS-133(N,TOT),,SIG)",
        "children": [
          {
            "code": [
              "55-CS-133",
              [
                "N,TOT"
              ],
              ",,SIG"
            ],
            "type": null,
            "target": "55-CS-133",
            "process": "N,TOT",
            "sf49": ",,SIG",
            "sf4": null,
            "sf5": null,
            "sf6": "SIG",
            "sf7": null,
            "sf8": null,
            "sf9": null
          }
        ],
        "type": null,
        "free_text": ""
      }
    }
  },
  "data_tables": {
    "001": {
      "common": null
    },
    "002": {
      "common": null,
      "data": {
        "heads": [
          "EN",
          "DATA",
          "ERR-S"
        ],
        "units": [
          "KEV",
          "B",
          "B"
        ],
        "data": [
          [
            350.5,
            351.12,
            352.05,
            352.99,
            353.93,
            354.87,
            355.82,
            357.09,
            358.05,
            359.01,
            359.98,
            360.95,
            361.92,
            362.9,
            363.88,
            364.86,
            365.85,
            366.85,
            367.84,
            368.85,
            369.85,
            370.86,
            371.87,
            372.89,
            373.91,
            374.94,
            375.97,
            377.0,
            378.04,
            379.09,
            380.13,
            380.84,
            381.89,
            382.95,
            384.01,
            385.08,
            385.8,
            386.87,
            387.95,
            389.04,
            390.12,
            390.85,
            391.95,
            393.05,
            393.79,
            394.9,
            396.01,
            396.76,
            397.88,
            399.01,
            399.76,
            400.89,
            402.03,
            402.8,
            403.94,
            405.09,
            405.87,
            407.03,
            408.19,
            408.97,
            409.75,
            410.93,
            412.11,
            412.9,
            414.1,
            415.29,
            416.09,
            416.89,
            417.7,
            418.91,
            420.13,
            420.94,
            421.76,
            422.99,
            424.22,
            427.37,
            428.02,
            428.88,
            429.97,
            431.06,
            431.94,
            433.04,
            434.14,
            435.03,
            435.92,
            437.03,
            438.15,
            439.05,
            439.95,
            440.86,
            441.99,
            443.13,
            444.04,
            444.96,
            445.88,
            447.03,
            448.19,
            449.12,
            450.05,
            450.99,
            451.93,
            452.87,
            453.81,
            455.0,
            456.18,
            457.14,
            458.1,
            459.06,
            460.02,
            460.99,
            461.96,
            462.93,
            463.91,
            464.88,
            465.87,
            466.85,
            467.84,
            468.83,
            469.83,
            470.82,
            471.82,
            472.83,
            473.84,
            474.85,
            475.86,
            476.88,
            477.9,
            478.92,
            479.95,
            480.98,
            482.01,
            483.05,
            484.09,
            485.13,
            486.18,
            487.23,
            488.02,
            488.81,
            489.87,
            490.93,
            492.0,
            493.07,
            494.14,
            495.23,
            496.02,
            496.84,
            497.9,
            499.01,
            500.14,
            501.2,
            502.85,
            505.1,
            507.15,
            508.97,
            510.89,
            512.95,
            515.04,
            516.92,
            518.87,
            520.99,
            523.13,
            525.06,
            527.05,
            528.96,
            531.0,
            532.95,
            534.9,
            537.1,
            539.17,
            540.93,
            542.92,
            545.03,
            547.07,
            549.09,
            551.13,
            552.9,
            554.82,
            556.89,
            558.99,
            561.2,
            563.3,
            565.18,
            567.12,
            569.26,
            571.14,
            573.13,
            575.17,
            577.04,
            579.24,
            581.29,
            582.89,
            584.85,
            586.81,
            588.89,
            591.0,
            592.96,
            595.25,
            597.02,
            598.78,
            601.1,
            603.13,
            605.01,
            606.77,
            608.92,
            611.18,
            612.83,
            614.97,
            617.13,
            619.0,
            620.9,
            623.07,
            625.26,
            627.0,
            629.04,
            630.85,
            633.17,
            635.14,
            637.04,
            639.07,
            640.95,
            643.23,
            645.04,
            647.18,
            649.06,
            651.07,
            653.13,
            655.18,
            656.81,
            658.91,
            660.95,
            662.98,
            665.12,
            666.77,
            668.92,
            670.89,
            672.74,
            674.79,
            677.03,
            678.67,
            680.92,
            682.9,
            684.85,
            686.92,
            689.25,
            690.89,
            692.81,
            694.97,
            697.29,
            699.02,
            700.9,
            702.84,
            705.0,
            707.3,
            709.14,
            711.18,
            712.85,
            715.1,
            717.06,
            719.41,
            720.94,
            723.2,
            724.93,
            727.02,
            728.96,
            730.87,
            733.03,
            734.75,
            737.13,
            738.66,
            740.63,
            742.58,
            744.59,
            746.75,
            748.58,
            750.9,
            752.7,
            754.73,
            756.69,
            758.9,
            761.01,
            763.01,
            765.34,
            767.15,
            769.23,
            771.32,
            773.42,
            775.0,
            776.59,
            778.71,
            780.84,
            782.98,
            785.12,
            787.28,
            789.45,
            791.08,
            792.71,
            794.9,
            797.09,
            799.3,
            802.07,
            805.97,
            811.03,
            816.14,
            820.72,
            825.92,
            831.17,
            835.88,
            840.62,
            846.01,
            851.46,
            856.34,
            861.26,
            866.23,
            871.24,
            876.29,
            881.38,
            886.53,
            891.06,
            895.63,
            900.9,
            906.21,
            910.9,
            915.62,
            921.07,
            925.87,
            930.71,
            936.29,
            941.22,
            946.18,
            951.18,
            956.22,
            961.3,
            965.75,
            971.22,
            976.05,
            979.27,
            986.41,
            993.38,
            1000.43,
            1007.55,
            1014.74,
            1022.02,
            1029.37,
            1036.8,
            1044.31,
            1051.91,
            1059.59,
            1067.35,
            1075.2,
            1083.13,
            1091.15,
            1099.27,
            1107.47
          ],
          [
            7.18,
            7.78,
            7.5,
            8.0,
            7.79,
            7.7,
            7.68,
            8.27,
            7.07,
            7.62,
            7.4,
            7.66,
            7.47,
            7.28,
            7.87,
            7.62,
            6.74,
            7.97,
            7.87,
            8.13,
            8.27,
            8.05,
            7.81,
            8.18,
            7.97,
            8.11,
            7.84,
            8.27,
            7.53,
            8.31,
            8.16,
            7.66,
            7.77,
            8.1,
            7.84,
            7.85,
            7.67,
            8.03,
            8.52,
            8.36,
            8.22,
            8.44,
            8.52,
            8.55,
            8.36,
            8.38,
            8.4,
            8.1,
            8.15,
            8.91,
            8.43,
            8.37,
            8.33,
            8.57,
            8.57,
            8.35,
            8.15,
            7.85,
            8.32,
            8.26,
            7.67,
            7.92,
            8.02,
            8.24,
            7.6,
            7.87,
            8.15,
            7.61,
            7.4,
            7.85,
            8.09,
            8.09,
            7.65,
            8.21,
            7.82,
            6.6,
            7.2,
            7.27,
            7.3,
            7.21,
            7.29,
            6.57,
            7.26,
            8.29,
            7.99,
            7.75,
            6.69,
            9.45,
            6.74,
            6.0,
            7.28,
            8.24,
            7.97,
            7.03,
            7.87,
            6.62,
            7.27,
            7.28,
            7.65,
            6.96,
            7.13,
            6.79,
            6.72,
            6.93,
            6.44,
            7.16,
            7.25,
            8.4,
            7.62,
            8.17,
            7.97,
            7.54,
            7.84,
            7.65,
            7.48,
            7.91,
            8.48,
            7.07,
            7.32,
            6.47,
            6.93,
            5.91,
            7.25,
            6.81,
            6.42,
            6.83,
            6.12,
            6.82,
            6.57,
            6.27,
            6.12,
            6.47,
            6.6,
            6.21,
            6.41,
            6.95,
            6.12,
            7.33,
            6.92,
            7.71,
            7.24,
            7.44,
            7.44,
            7.21,
            7.07,
            7.19,
            7.46,
            7.31,
            6.75,
            6.97,
            6.81,
            6.75,
            6.8,
            6.79,
            6.88,
            7.26,
            6.83,
            6.81,
            6.74,
            6.86,
            6.65,
            6.77,
            6.83,
            6.81,
            7.03,
            6.88,
            6.53,
            6.61,
            6.12,
            6.57,
            6.68,
            6.48,
            6.75,
            6.67,
            6.68,
            6.92,
            6.75,
            6.73,
            6.88,
            6.85,
            6.78,
            6.71,
            7.11,
            6.69,
            6.89,
            6.81,
            6.9,
            6.51,
            6.78,
            7.04,
            6.76,
            7.05,
            6.63,
            6.68,
            6.62,
            6.62,
            6.67,
            6.44,
            6.62,
            6.45,
            6.17,
            6.41,
            6.47,
            6.65,
            6.38,
            6.61,
            6.44,
            6.73,
            6.2,
            6.69,
            6.74,
            6.95,
            6.83,
            6.72,
            6.45,
            6.55,
            6.34,
            6.31,
            6.06,
            6.44,
            6.35,
            6.29,
            6.44,
            6.37,
            6.39,
            6.49,
            6.45,
            7.48,
            6.78,
            6.68,
            6.43,
            6.51,
            6.17,
            6.21,
            6.1,
            6.51,
            6.41,
            6.45,
            5.96,
            6.18,
            6.12,
            5.55,
            6.09,
            5.91,
            6.78,
            5.42,
            6.26,
            6.36,
            6.18,
            6.27,
            6.06,
            6.49,
            6.12,
            5.88,
            5.98,
            5.98,
            6.28,
            6.33,
            6.83,
            6.32,
            5.74,
            6.11,
            6.21,
            5.65,
            6.32,
            6.06,
            6.27,
            6.08,
            5.99,
            5.47,
            6.05,
            5.73,
            5.98,
            6.09,
            5.84,
            5.6,
            5.47,
            5.74,
            5.26,
            5.94,
            4.96,
            5.23,
            5.42,
            5.17,
            5.09,
            5.24,
            5.19,
            5.32,
            6.04,
            5.03,
            5.13,
            5.59,
            5.25,
            4.84,
            5.38,
            5.68,
            5.16,
            5.44,
            4.87,
            5.82,
            5.55,
            5.35,
            4.89,
            5.4,
            5.18,
            5.7,
            5.36,
            5.56,
            5.22,
            5.13,
            5.24,
            5.7,
            5.05,
            4.86,
            4.99,
            4.93,
            5.39,
            4.66,
            5.09,
            4.85,
            4.92,
            5.59,
            4.92,
            4.89,
            4.99,
            5.41,
            5.07,
            4.67,
            4.69,
            4.97,
            4.8,
            4.23,
            4.98,
            4.55,
            4.46,
            4.75,
            5.18,
            5.13,
            5.48,
            4.53,
            4.45,
            4.17,
            4.9,
            4.34,
            4.7,
            4.97,
            4.57,
            5.12,
            4.74,
            5.21,
            4.41,
            4.85,
            4.33
          ],
          [
            0.44,
            0.44,
            0.31,
            0.44,
            0.3,
            0.43,
            0.3,
            0.3,
            0.42,
            0.3,
            0.42,
            0.29,
            0.41,
            0.29,
            0.41,
            0.28,
            0.4,
            0.28,
            0.39,
            0.27,
            0.38,
            0.27,
            0.38,
            0.26,
            0.37,
            0.26,
            0.36,
            0.26,
            0.36,
            0.25,
            0.36,
            0.35,
            0.25,
            0.35,
            0.24,
            0.34,
            0.34,
            0.24,
            0.34,
            0.24,
            0.33,
            0.33,
            0.23,
            0.32,
            0.32,
            0.23,
            0.32,
            0.32,
            0.22,
            0.31,
            0.31,
            0.22,
            0.3,
            0.3,
            0.21,
            0.3,
            0.3,
            0.21,
            0.29,
            0.29,
            0.29,
            0.2,
            0.29,
            0.28,
            0.2,
            0.28,
            0.28,
            0.28,
            0.27,
            0.19,
            0.27,
            0.27,
            0.27,
            0.19,
            0.27,
            0.92,
            0.64,
            0.64,
            0.52,
            0.63,
            0.65,
            0.52,
            0.63,
            0.63,
            0.62,
            0.49,
            0.59,
            0.59,
            0.59,
            0.58,
            0.46,
            0.56,
            0.56,
            0.55,
            0.54,
            0.44,
            0.53,
            0.53,
            0.51,
            0.52,
            0.51,
            0.51,
            0.5,
            0.4,
            0.49,
            0.49,
            0.48,
            0.48,
            0.48,
            0.48,
            0.47,
            0.47,
            0.46,
            0.46,
            0.45,
            0.45,
            0.44,
            0.44,
            0.44,
            0.43,
            0.43,
            0.42,
            0.42,
            0.42,
            0.41,
            0.41,
            0.4,
            0.4,
            0.4,
            0.39,
            0.39,
            0.39,
            0.39,
            0.38,
            0.38,
            0.38,
            0.54,
            0.37,
            0.37,
            0.37,
            0.37,
            0.26,
            0.26,
            0.23,
            0.37,
            0.26,
            0.23,
            0.25,
            0.22,
            0.25,
            0.16,
            0.16,
            0.18,
            0.17,
            0.17,
            0.15,
            0.17,
            0.16,
            0.17,
            0.15,
            0.16,
            0.15,
            0.16,
            0.16,
            0.15,
            0.16,
            0.15,
            0.14,
            0.17,
            0.15,
            0.15,
            0.15,
            0.15,
            0.15,
            0.15,
            0.17,
            0.15,
            0.15,
            0.14,
            0.15,
            0.15,
            0.16,
            0.15,
            0.15,
            0.16,
            0.15,
            0.16,
            0.15,
            0.15,
            0.16,
            0.17,
            0.14,
            0.16,
            0.14,
            0.16,
            0.14,
            0.14,
            0.2,
            0.14,
            0.14,
            0.16,
            0.17,
            0.16,
            0.14,
            0.16,
            0.17,
            0.14,
            0.16,
            0.17,
            0.16,
            0.15,
            0.17,
            0.17,
            0.17,
            0.17,
            0.15,
            0.2,
            0.15,
            0.21,
            0.15,
            0.17,
            0.17,
            0.17,
            0.17,
            0.19,
            0.24,
            0.22,
            0.29,
            0.19,
            0.29,
            0.19,
            0.3,
            0.22,
            0.24,
            0.22,
            0.3,
            0.19,
            0.29,
            0.22,
            0.24,
            0.22,
            0.3,
            0.19,
            0.3,
            0.22,
            0.3,
            0.19,
            0.3,
            0.22,
            0.3,
            0.22,
            0.24,
            0.22,
            0.3,
            0.22,
            0.3,
            0.22,
            0.24,
            0.3,
            0.22,
            0.3,
            0.22,
            0.3,
            0.22,
            0.3,
            0.22,
            0.3,
            0.22,
            0.31,
            0.31,
            0.22,
            0.31,
            0.23,
            0.31,
            0.18,
            0.22,
            0.22,
            0.18,
            0.31,
            0.23,
            0.3,
            0.23,
            0.3,
            0.3,
            0.3,
            0.3,
            0.43,
            0.3,
            0.3,
            0.3,
            0.3,
            0.3,
            0.3,
            0.3,
            0.43,
            0.3,
            0.3,
            0.3,
            0.3,
            0.25,
            0.21,
            0.19,
            0.21,
            0.22,
            0.19,
            0.21,
            0.21,
            0.21,
            0.19,
            0.21,
            0.21,
            0.21,
            0.21,
            0.21,
            0.21,
            0.21,
            0.21,
            0.25,
            0.21,
            0.22,
            0.22,
            0.25,
            0.22,
            0.22,
            0.25,
            0.22,
            0.22,
            0.25,
            0.22,
            0.25,
            0.22,
            0.25,
            0.22,
            0.19,
            0.26,
            0.3,
            0.4,
            0.4,
            0.39,
            0.39,
            0.39,
            0.39,
            0.39,
            0.38,
            0.38,
            0.38,
            0.38,
            0.38,
            0.38,
            0.38,
            0.38,
            0.37,
            0.38
          ]
        ]
      }
    },
    "003": {
      "common": null,
      "data": {
        "heads": [
          "EN",
          "DATA",
          "ERR-S"
        ],
        "units": [
          "KEV",
          "B",
          "B"
        ],
        "data": [
          [
            250.27,
            251.02,
            251.96,
            253.1,
            254.05,
            255.01,
            255.98,
            256.95,
            257.92,
            258.9,
            260.09,
            261.08,
            262.08,
            263.08,
            264.09,
            265.11,
            265.92,
            266.95,
            267.98,
            269.02,
            270.07,
            270.91,
            271.96,
            273.02,
            273.88,
            274.95,
            276.03,
            276.9,
            277.99,
            279.09,
            279.97,
            280.86,
            281.97,
            283.09,
            283.99,
            284.9,
            286.04,
            287.18,
            288.11,
            289.03,
            289.96,
            290.9,
            291.84,
            293.02,
            294.2,
            295.16,
            296.12,
            297.08,
            298.05,
            299.03,
            300.01,
            300.99,
            301.98,
            302.97,
            303.97,
            304.97,
            305.98,
            307.0,
            308.01,
            309.04,
            310.07,
            311.1,
            312.14,
            313.18,
            314.23,
            315.02,
            315.82,
            316.88,
            317.95,
            319.02,
            320.1,
            321.18,
            322.0,
            322.82,
            323.92,
            325.02,
            326.13,
            326.97,
            327.81,
            328.93,
            330.06,
            331.19,
            332.05,
            332.91,
            334.06,
            334.92,
            335.79,
            336.96,
            338.13,
            339.01,
            339.9,
            341.09,
            341.98,
            342.88,
            344.08,
            344.99,
            345.89,
            347.11,
            348.03,
            348.95,
            350.19,
            351.12,
            352.05,
            352.99,
            353.93,
            354.87,
            355.82,
            357.09,
            358.05,
            359.01,
            359.98,
            360.95,
            361.92,
            362.9,
            363.88,
            364.86,
            365.85,
            366.85,
            367.84,
            368.85,
            369.85,
            370.86,
            371.87,
            372.89,
            373.91,
            374.94,
            375.97,
            377.0,
            378.04,
            379.09,
            380.13,
            380.84,
            381.89,
            382.95,
            384.01,
            385.08,
            385.8,
            386.87,
            387.95,
            389.04,
            390.12,
            390.85,
            391.95,
            393.05,
            393.79,
            394.9,
            396.01,
            396.76,
            397.88,
            399.01,
            399.76,
            400.89,
            402.03,
            402.8,
            403.94,
            405.09,
            405.87,
            407.03,
            408.19,
            408.97,
            409.75,
            410.94,
            412.02,
            412.99,
            414.08,
            415.18,
            416.0,
            416.98,
            417.95,
            418.92,
            420.02,
            421.02,
            421.86,
            422.99,
            424.12,
            424.98,
            425.99,
            426.98,
            427.98,
            428.99,
            430.0,
            431.09,
            431.98,
            432.87,
            433.99,
            435.12,
            436.02,
            436.92,
            437.83,
            438.97,
            440.11,
            441.03,
            441.95,
            442.87,
            444.03,
            445.19,
            446.13,
            447.06,
            448.0,
            448.95,
            449.89,
            450.84,
            451.79,
            452.98,
            454.18,
            455.14,
            456.11,
            457.08,
            458.05,
            459.02,
            460.0,
            460.98,
            461.96,
            462.95,
            463.94,
            464.93,
            465.93,
            466.93,
            467.93,
            468.94,
            469.95,
            470.96,
            471.98,
            473.0,
            474.02,
            475.04,
            476.07,
            477.1,
            478.14,
            479.18,
            480.22,
            481.01,
            481.79,
            482.93,
            483.9,
            485.14,
            486.02,
            487.08,
            488.07,
            489.22,
            490.19,
            490.84,
            491.92,
            492.94,
            494.09,
            495.22,
            496.0,
            496.83,
            497.88,
            499.03,
            500.25,
            501.25,
            502.92,
            504.96,
            506.99,
            509.14,
            511.06,
            512.91,
            514.99,
            516.92,
            518.91,
            521.04,
            523.18,
            525.18,
            526.91,
            529.1,
            531.2,
            532.89,
            534.86,
            537.09,
            539.19,
            540.97,
            542.98,
            544.82,
            546.94,
            549.23,
            551.3,
            553.12,
            555.04,
            557.13,
            558.97,
            560.93,
            563.06,
            564.92,
            566.92,
            569.08,
            570.96,
            573.0,
            575.05,
            576.97,
            579.19,
            581.25,
            582.88,
            584.96,
            586.86,
            588.94,
            591.11,
            592.95,
            595.14,
            596.86,
            598.93,
            601.4,
            603.05,
            604.99,
            607.11,
            608.86,
            610.84,
            612.83,
            615.15,
            616.88,
            619.11,
            621.08,
            622.86,
            625.27,
            626.88,
            629.05,
            630.79,
            633.13,
            635.14,
            637.01,
            639.13,
            640.93,
            643.43,
            645.18,
            647.38,
            648.85,
            651.04,
            652.97,
            655.09,
            657.13,
            658.87,
            660.91,
            662.96,
            665.15,
            667.08,
            668.99,
            670.67,
            672.87,
            674.87,
            676.79,
            678.86,
            681.17,
            682.8,
            684.72,
            686.84,
            689.18,
            690.86,
            692.79,
            694.97,
            697.33,
            699.07,
            701.0,
            702.92,
            704.7,
            707.09,
            709.36,
            711.35,
            713.13,
            715.3,
            716.92,
            718.83,
            720.56,
            722.67,
            724.59,
            727.17,
            729.32,
            731.36,
            733.36,
            735.31,
            737.42,
            739.28,
            741.28,
            743.13,
            745.31,
            747.28,
            749.36,
            751.47,
            753.27,
            755.0,
            756.65,
            758.61,
            760.77,
            762.78,
            765.07,
            766.98,
            769.09,
            771.11,
            773.35,
            775.29,
            776.56,
            778.68,
            780.84,
            783.01,
            785.19,
            787.39,
            789.03,
            790.69,
            792.9,
            795.13,
            797.36,
            799.04,
            801.29,
            805.82,
            810.95,
            816.14,
            821.38,
            826.07,
            830.81,
            835.59,
            841.02,
            846.5,
            851.41,
            856.37,
            861.37,
            866.42,
            871.51,
            876.0,
            880.52,
            885.74,
            891.0,
            896.31,
            900.99,
            905.71,
            911.15,
            915.95,
            920.79,
            926.37,
            931.29,
            936.25,
            941.25,
            946.3,
            951.38,
            955.76,
            960.92,
            966.12,
            970.87,
            976.09,
            980.91,
            985.5,
            990.91,
            996.35,
            1001.05,
            1005.79,
            1010.56,
            1015.37,
            1021.02,
            1026.71,
            1031.63,
            1036.59,
            1041.58,
            1046.61,
            1051.67,
            1056.77,
            1061.05,
            1065.36,
            1070.56,
            1075.8,
            1081.08,
            1086.39,
            1090.85,
            1095.34,
            1100.77,
            1106.23,
            1110.81,
            1115.42,
            1121.0,
            1126.61,
            1131.32,
            1136.06,
            1140.83,
            1145.63,
            1151.44,
            1156.3,
            1161.2,
            1166.13,
            1171.09,
            1176.09,
            1181.11,
            1186.17,
            1191.26,
            1196.38,
            1199.47
          ],
          [
            5.46,
            5.7,
            6.13,
            5.96,
            6.0,
            5.32,
            5.43,
            5.35,
            5.31,
            5.68,
            4.68,
            5.65,
            5.3,
            5.07,
            4.95,
            5.52,
            5.15,
            5.02,
            5.54,
            5.33,
            5.25,
            5.96,
            5.19,
            5.12,
            5.0,
            5.13,
            5.33,
            5.07,
            5.6,
            5.99,
            6.87,
            5.67,
            5.63,
            5.27,
            5.72,
            5.25,
            5.24,
            5.17,
            5.28,
            4.89,
            5.2,
            5.27,
            6.12,
            5.61,
            5.32,
            5.75,
            5.67,
            5.61,
            5.28,
            5.21,
            5.12,
            5.76,
            5.91,
            5.44,
            4.9,
            5.34,
            5.24,
            5.93,
            5.24,
            5.01,
            4.89,
            5.14,
            5.33,
            5.48,
            5.59,
            5.0,
            5.55,
            5.73,
            5.14,
            5.62,
            6.01,
            6.08,
            5.8,
            5.36,
            5.68,
            5.45,
            5.55,
            5.66,
            5.87,
            5.52,
            5.67,
            5.78,
            5.37,
            5.55,
            5.73,
            5.5,
            5.98,
            5.41,
            5.68,
            5.44,
            5.62,
            5.24,
            6.02,
            5.92,
            5.37,
            5.29,
            5.39,
            5.72,
            6.01,
            6.0,
            5.62,
            5.47,
            5.46,
            6.23,
            6.66,
            5.55,
            5.81,
            5.92,
            5.42,
            5.44,
            5.16,
            5.81,
            5.59,
            5.56,
            5.62,
            5.75,
            5.81,
            5.95,
            5.51,
            5.54,
            5.72,
            5.86,
            5.88,
            5.8,
            5.63,
            6.12,
            6.26,
            5.85,
            5.64,
            6.0,
            5.24,
            5.86,
            5.8,
            5.52,
            5.71,
            6.3,
            5.93,
            5.9,
            6.24,
            5.81,
            5.7,
            5.75,
            5.68,
            5.73,
            5.99,
            5.88,
            5.49,
            6.02,
            6.31,
            6.03,
            5.45,
            5.69,
            5.88,
            5.76,
            5.68,
            6.08,
            5.77,
            6.08,
            5.65,
            5.89,
            6.09,
            5.87,
            6.1,
            6.13,
            6.07,
            6.0,
            5.52,
            5.84,
            6.04,
            6.02,
            6.1,
            6.1,
            5.72,
            6.12,
            6.17,
            5.82,
            5.75,
            6.27,
            6.07,
            6.22,
            5.9,
            5.51,
            6.37,
            6.47,
            5.77,
            6.52,
            5.97,
            5.84,
            5.94,
            6.71,
            5.84,
            6.32,
            6.13,
            6.21,
            6.02,
            5.64,
            6.15,
            5.9,
            5.83,
            5.93,
            6.51,
            6.35,
            6.36,
            5.63,
            5.71,
            6.14,
            5.96,
            5.7,
            6.21,
            5.85,
            5.81,
            5.84,
            6.03,
            5.99,
            6.34,
            5.33,
            5.52,
            6.23,
            5.89,
            5.67,
            5.93,
            5.69,
            5.83,
            5.63,
            5.68,
            5.47,
            6.11,
            6.17,
            5.89,
            5.55,
            5.79,
            5.67,
            5.5,
            5.45,
            5.94,
            5.41,
            5.63,
            5.69,
            5.33,
            5.84,
            5.45,
            5.42,
            5.82,
            5.74,
            5.9,
            5.62,
            5.15,
            5.63,
            5.54,
            5.81,
            5.65,
            5.62,
            5.62,
            5.45,
            5.52,
            5.52,
            5.65,
            5.67,
            5.73,
            5.6,
            5.51,
            5.46,
            5.36,
            5.82,
            5.64,
            5.45,
            5.73,
            5.64,
            5.73,
            5.57,
            5.46,
            5.52,
            5.59,
            5.69,
            5.69,
            5.6,
            5.52,
            5.64,
            5.56,
            5.55,
            5.39,
            5.66,
            5.74,
            5.67,
            5.69,
            5.79,
            5.79,
            5.49,
            5.43,
            5.63,
            5.47,
            5.62,
            5.95,
            5.68,
            5.83,
            5.6,
            5.81,
            5.51,
            5.82,
            5.45,
            5.91,
            5.46,
            5.62,
            5.85,
            5.87,
            5.73,
            5.39,
            5.75,
            5.73,
            5.6,
            5.87,
            5.73,
            5.9,
            5.86,
            5.77,
            5.65,
            5.88,
            5.82,
            5.29,
            5.32,
            5.61,
            5.65,
            6.08,
            5.69,
            6.01,
            5.71,
            5.64,
            5.7,
            5.59,
            5.52,
            5.93,
            5.78,
            5.58,
            5.61,
            6.06,
            5.85,
            5.97,
            6.27,
            5.66,
            6.3,
            5.83,
            6.36,
            5.77,
            5.86,
            6.04,
            6.18,
            5.78,
            5.72,
            5.86,
            5.68,
            5.77,
            6.19,
            5.52,
            6.24,
            5.93,
            5.92,
            6.31,
            5.92,
            5.76,
            6.11,
            5.68,
            5.83,
            6.1,
            6.5,
            5.53,
            5.68,
            5.96,
            5.63,
            5.42,
            5.73,
            6.16,
            5.83,
            5.82,
            6.48,
            6.43,
            6.15,
            6.16,
            5.77,
            6.05,
            6.1,
            6.37,
            6.29,
            6.46,
            6.23,
            6.25,
            6.44,
            6.2,
            6.08,
            6.27,
            6.22,
            6.95,
            6.68,
            6.08,
            6.99,
            6.35,
            6.38,
            7.08,
            6.87,
            6.92,
            6.78,
            6.63,
            6.88,
            6.93,
            6.77,
            6.84,
            6.53,
            7.21,
            6.92,
            6.7,
            6.65,
            6.71,
            7.11,
            6.98,
            6.82,
            7.01,
            6.89,
            6.78,
            6.67,
            7.05,
            7.14,
            7.09,
            7.11,
            7.01,
            6.78,
            6.38,
            7.36,
            7.0,
            6.88,
            7.69,
            7.26,
            7.36,
            7.03,
            7.1,
            7.13,
            7.41,
            7.08,
            7.01,
            7.11,
            7.22,
            7.15,
            6.98,
            7.07,
            7.26,
            7.11,
            6.81,
            6.76,
            6.78,
            6.94,
            6.7,
            6.81,
            7.08,
            6.7,
            6.81,
            7.09,
            6.88,
            6.94,
            7.03,
            6.88,
            7.09,
            7.2,
            6.59,
            6.88,
            6.66,
            6.82,
            6.84,
            6.43,
            6.42,
            6.5,
            7.46,
            6.54,
            6.63,
            6.67,
            6.6,
            6.71,
            6.96,
            6.6,
            7.0,
            7.13,
            6.41,
            7.0,
            6.58,
            6.82
          ],
          [
            0.43,
            0.43,
            0.35,
            0.34,
            0.42,
            0.34,
            0.42,
            0.34,
            0.41,
            0.33,
            0.33,
            0.4,
            0.33,
            0.4,
            0.32,
            0.4,
            0.39,
            0.32,
            0.39,
            0.31,
            0.39,
            0.39,
            0.31,
            0.38,
            0.38,
            0.31,
            0.38,
            0.38,
            0.31,
            0.38,
            0.38,
            0.37,
            0.3,
            0.37,
            0.37,
            0.37,
            0.3,
            0.37,
            0.36,
            0.36,
            0.36,
            0.36,
            0.36,
            0.29,
            0.35,
            0.35,
            0.35,
            0.35,
            0.35,
            0.35,
            0.34,
            0.35,
            0.34,
            0.34,
            0.34,
            0.34,
            0.34,
            0.33,
            0.33,
            0.33,
            0.33,
            0.33,
            0.33,
            0.33,
            0.33,
            0.46,
            0.32,
            0.32,
            0.32,
            0.32,
            0.32,
            0.32,
            0.45,
            0.31,
            0.31,
            0.31,
            0.31,
            0.44,
            0.31,
            0.31,
            0.3,
            0.3,
            0.42,
            0.3,
            0.3,
            0.42,
            0.3,
            0.29,
            0.29,
            0.41,
            0.29,
            0.29,
            0.41,
            0.28,
            0.28,
            0.4,
            0.28,
            0.28,
            0.39,
            0.27,
            0.27,
            0.38,
            0.27,
            0.38,
            0.27,
            0.37,
            0.26,
            0.26,
            0.37,
            0.26,
            0.37,
            0.26,
            0.36,
            0.25,
            0.36,
            0.25,
            0.35,
            0.25,
            0.35,
            0.24,
            0.34,
            0.24,
            0.34,
            0.23,
            0.33,
            0.23,
            0.33,
            0.23,
            0.32,
            0.23,
            0.32,
            0.31,
            0.22,
            0.31,
            0.22,
            0.31,
            0.3,
            0.21,
            0.3,
            0.21,
            0.3,
            0.29,
            0.2,
            0.29,
            0.29,
            0.2,
            0.28,
            0.28,
            0.2,
            0.28,
            0.27,
            0.19,
            0.27,
            0.27,
            0.19,
            0.26,
            0.26,
            0.19,
            0.26,
            0.26,
            0.26,
            0.17,
            0.21,
            0.22,
            0.16,
            0.22,
            0.22,
            0.2,
            0.21,
            0.16,
            0.2,
            0.21,
            0.21,
            0.15,
            0.21,
            0.2,
            0.19,
            0.2,
            0.15,
            0.21,
            0.19,
            0.41,
            0.41,
            0.41,
            0.33,
            0.4,
            0.39,
            0.38,
            0.38,
            0.31,
            0.37,
            0.37,
            0.36,
            0.36,
            0.29,
            0.35,
            0.35,
            0.34,
            0.34,
            0.34,
            0.33,
            0.33,
            0.32,
            0.26,
            0.32,
            0.32,
            0.31,
            0.31,
            0.31,
            0.3,
            0.3,
            0.3,
            0.3,
            0.29,
            0.29,
            0.29,
            0.29,
            0.28,
            0.28,
            0.28,
            0.28,
            0.28,
            0.27,
            0.27,
            0.27,
            0.27,
            0.27,
            0.26,
            0.26,
            0.26,
            0.26,
            0.37,
            0.25,
            0.22,
            0.25,
            0.22,
            0.25,
            0.25,
            0.21,
            0.24,
            0.27,
            0.24,
            0.24,
            0.21,
            0.24,
            0.2,
            0.33,
            0.23,
            0.2,
            0.23,
            0.18,
            0.19,
            0.12,
            0.14,
            0.12,
            0.13,
            0.13,
            0.13,
            0.12,
            0.14,
            0.11,
            0.13,
            0.11,
            0.14,
            0.12,
            0.11,
            0.14,
            0.12,
            0.12,
            0.11,
            0.13,
            0.12,
            0.12,
            0.13,
            0.1,
            0.12,
            0.12,
            0.13,
            0.12,
            0.12,
            0.13,
            0.12,
            0.12,
            0.13,
            0.12,
            0.12,
            0.13,
            0.12,
            0.13,
            0.12,
            0.12,
            0.13,
            0.14,
            0.17,
            0.22,
            0.17,
            0.22,
            0.17,
            0.19,
            0.22,
            0.17,
            0.17,
            0.27,
            0.17,
            0.22,
            0.19,
            0.22,
            0.17,
            0.19,
            0.22,
            0.17,
            0.27,
            0.17,
            0.19,
            0.22,
            0.19,
            0.23,
            0.17,
            0.28,
            0.17,
            0.28,
            0.17,
            0.2,
            0.23,
            0.2,
            0.28,
            0.18,
            0.28,
            0.18,
            0.28,
            0.2,
            0.23,
            0.2,
            0.23,
            0.2,
            0.28,
            0.2,
            0.23,
            0.2,
            0.28,
            0.18,
            0.28,
            0.2,
            0.28,
            0.18,
            0.28,
            0.2,
            0.29,
            0.18,
            0.29,
            0.2,
            0.29,
            0.2,
            0.29,
            0.18,
            0.29,
            0.2,
            0.29,
            0.2,
            0.29,
            0.29,
            0.2,
            0.29,
            0.2,
            0.19,
            0.17,
            0.21,
            0.17,
            0.21,
            0.17,
            0.21,
            0.21,
            0.17,
            0.21,
            0.17,
            0.21,
            0.17,
            0.23,
            0.2,
            0.19,
            0.21,
            0.17,
            0.2,
            0.17,
            0.21,
            0.21,
            0.18,
            0.21,
            0.24,
            0.3,
            0.28,
            0.27,
            0.27,
            0.27,
            0.28,
            0.39,
            0.27,
            0.27,
            0.27,
            0.27,
            0.39,
            0.22,
            0.17,
            0.19,
            0.17,
            0.19,
            0.19,
            0.19,
            0.19,
            0.17,
            0.19,
            0.19,
            0.19,
            0.19,
            0.19,
            0.19,
            0.22,
            0.19,
            0.19,
            0.19,
            0.19,
            0.22,
            0.19,
            0.19,
            0.22,
            0.19,
            0.2,
            0.22,
            0.2,
            0.23,
            0.2,
            0.23,
            0.23,
            0.2,
            0.23,
            0.16,
            0.16,
            0.24,
            0.24,
            0.2,
            0.24,
            0.24,
            0.24,
            0.23,
            0.23,
            0.2,
            0.23,
            0.23,
            0.23,
            0.23,
            0.23,
            0.23,
            0.23,
            0.29,
            0.23,
            0.23,
            0.23,
            0.23,
            0.23,
            0.29,
            0.24,
            0.23,
            0.24,
            0.29,
            0.24,
            0.24,
            0.24,
            0.29,
            0.24,
            0.29,
            0.24,
            0.24,
            0.29,
            0.24,
            0.3,
            0.24,
            0.3,
            0.24,
            0.3,
            0.25,
            0.31,
            0.45
          ]
        ]
      }
    }
  },
  "experimental_conditions": {
    "001": {
      "0": {
        "analysis": [
          {
            "x4_code": null,
            "free_txt": [
              "Data were averaged over intervals corresponding to the",
              "experimental resolution as follows...",
              "    incident neutron E,keV.....Averaging interval,keV",
              "        less than 500.   ..............   1.",
              "         500. To 800.   ...............   2.",
              "           over 800.   ................   5."
            ]
          }
        ],
        "detector": [
          {
            "x4_code": "(SCIN)",
            "free_txt": [
              " Plastic scintillator NE102A, 10.cm dia and 2.5",
              "cm thick,viewed either by two (RCA8575) photomultiplier",
              "tubes in coincidence for low energies or by a single",
              " (Phillips xp1040) tube for higher energies."
            ]
          }
        ],
        "err-analys": [
          {
            "x4_code": "(ERR-S)",
            "free_txt": [
              " Statistical uncertainty after summing groups",
              "of channels to correspond with the time-of-flight",
              "resolution and considering the integrated counts",
              "obtained both with and without the sample"
            ]
          }
        ],
        "facility": [
          {
            "x4_code": "(VDG)",
            "free_txt": [
              " 3-MeV pulsed and bunched(Klystron) Van de Graaff"
            ]
          }
        ],
        "inc-source": [
          {
            "x4_code": "(P-T)",
            "free_txt": [
              "   T(p,n)     proton on tritium"
            ]
          },
          {
            "x4_code": "(P-LI7)",
            "free_txt": [
              " Li-7(p,n)  proton on lithium",
              "lithium metal target was 300 keV thick"
            ]
          }
        ],
        "method": [
          {
            "x4_code": "(TRN)",
            "free_txt": [
              " Transmission. Sample thickness was varied between",
              "3.4 and 5.0 cm to produce maximum beam attenuation",
              "of about 20.%"
            ]
          },
          {
            "x4_code": "(TOF)",
            "free_txt": [
              " Time of flight. Accelerator pulse rate, 1o**6 Hz,",
              "pulse length, 2 nanosec. Flight path was varied between",
              "4 (at low energy) and 7 meters (at high E). Energy",
              "calibration was checked by transmission through an iron",
              "absorber and by comparing the flight times of neutrons",
              "and gammas from the lithium target."
            ]
          }
        ],
        "part-det": [
          {
            "x4_code": "(N)",
            "free_txt": [
              " neutrons"
            ]
          }
        ],
        "status": [
          {
            "x4_code": "(TABLE)",
            "free_txt": [
              " Data received from Barnard 19720210"
            ]
          }
        ]
      }
    },
    "002": {
      "0": {
        "sample": [
          {
            "x4_code": null,
            "free_txt": [
              "Natural rubidium. Total cross section data were",
              "analyzed as if sample were monoisotopic."
            ]
          }
        ]
      }
    },
    "003": {}
  }
}