{
  "bib": {
    "title": "Investigation of the a-cluster structure of 22Ne and 22Mg",
    "authors": [
      {
        "name": "V.Z.Goldberg"
      },
      {
        "name": "G.V.Rogachev"
      },
      {
        "name": "W.H.Trzaska"
      },
      {
        "name": "J.J.Kolata"
      },
      {
        "name": "A.Andreyev"
      },
      {
        "name": "C.Angulo"
      },
      {
        "name": "M.J.G.Borge"
      },
      {
        "name": "S.Cherubini"
      },
      {
        "name": "G.Chubarian"
      },
      {
        "name": "G.Crowley"
      },
      {
        "name": "P.Van Duppen"
      },
      {
        "name": "M.Gorska"
      },
      {
        "name": "M.Gulino"
      },
      {
        "name": "M.Huyse"
      },
      {
        "name": "P.Jesinger"
      },
      {
        "name": "K.-M.Kallman"
      },
      {
        "name": "M.Lattuada"
      },
      {
        "name": "T.Lonnroth"
      },
      {
        "name": "M.Mutterer"
      },
      {
        "name": "R.Raabe"
      },
      {
        "name": "S.Romano"
      },
      {
        "name": "M.V.Rozhkov"
      },
      {
        "name": "B.B.Skorodumov"
      },
      {
        "name": "C.Spitaleri"
      },
      {
        "name": "O.Tengblad"
      },
      {
        "name": "A.Tumino"
      }
    ],
    "institutes": [
      {
        "x4_code": "(1USANOT)",
        "free_txt": ""
      },
      {
        "x4_code": "(4RUSKUR)",
        "free_txt": ""
      },
      {
        "x4_code": "(1USAETS)",
        "free_txt": ""
      },
      {
        "x4_code": "(2SF JYV)",
        "free_txt": ""
      },
      {
        "x4_code": "(2BLGLEU)",
        "free_txt": ""
      },
      {
        "x4_code": "(2BLGPCL)",
        "free_txt": ""
      },
      {
        "x4_code": "(2SPNSPN)",
        "free_txt": ""
      },
      {
        "x4_code": "(4ZZZDUB)",
        "free_txt": ""
      },
      {
        "x4_code": "(1USASCA)",
        "free_txt": ""
      },
      {
        "x4_code": "(2GERTHD)",
        "free_txt": ""
      },
      {
        "x4_code": "(2SF ABA)",
        "free_txt": ""
      },
      {
        "x4_code": "(2ITYLNS)",
        "free_txt": ""
      }
    ],
    "references": {
      "0": [
        {
          "x4_code": "(J,PR/C,69,024602,2004)",
          "free_txt": [],
          "publication_year": "2004"
        }
      ]
    },
    "history": [
      {
        "x4_code": "(20050519C)",
        "free_txt": [
          " SD"
        ]
      }
    ]
  },
  "D0352-001": {
    "extra_information": {
      "comment": {
        "0": [
          {
            "x4_code": null,
            "free_txt": [
              "The authors gave excitation functions as function of",
              "the excitation energy (see MISC-COL description).",
              "Compiler calculated the energy of the incident",
              "particle from the mass balance formula."
            ]
          }
        ]
      },
      "err-analys": {
        "0": [
          {
            "x4_code": "(DATA-ERR)",
            "free_txt": [
              " The absolute values of the cross sections",
              "were obtained with a precision of 25%, mainly related",
              "the determination of the beam current."
            ]
          },
          {
            "x4_code": "(ANG-ERR)",
            "free_txt": [
              " Uncertainty in the angle determination"
            ]
          }
        ]
      },
      "method": {
        "0": [
          {
            "x4_code": null,
            "free_txt": [
              "The method of inverse kinematics using a",
              "very thick target"
            ]
          }
        ]
      },
      "sample": {
        "0": [
          {
            "x4_code": null,
            "free_txt": [
              "The chamber was filled with helium gas of 99.9% purity",
              "at a pressure of 360 Torr. The beam entered a large",
              "scattering chamber via a 3 mu-m thick Havar window.",
              "18O ions backscattered from this foil were used to",
              "monitor the beam intensity."
            ]
          }
        ]
      },
      "status": {
        "0": [
          {
            "x4_code": "(TABLE)",
            "free_txt": [
              " Data received from Prof. G.V.Rogachev"
            ]
          },
          {
            "x4_code": "(APRVD)",
            "free_txt": [
              " Entry approved by Prof. G.V.Rogachev"
            ]
          }
        ]
      }
    }
  },
  "D0352-002": {
    "reaction": {
      "0": {
        "x4_code": "(8-O-18(A,EL)8-O-18,,DA)",
        "0": {
          "code": [
            "8-O-18",
            [
              "A,EL"
            ],
            "8-O-18,,DA"
          ],
          "type": null,
          "target": "8-O-18",
          "process": "A,EL",
          "sf49": "8-O-18,,DA",
          "sf4": "8-O-18",
          "sf5": null,
          "sf6": "DA",
          "sf7": null,
          "sf8": null,
          "sf9": null
        },
        "type": null,
        "free_text": ""
      }
    },
    "extra_information": {
      "detector": {
        "0": [
          {
            "x4_code": "(TELES,SI,SI)",
            "free_txt": [
              " An array of Si detectors positioned in",
              "the forward direction was used to detect the",
              "recoil aparticles."
            ]
          }
        ]
      },
      "err-analys": {
        "0": [
          {
            "x4_code": "(ERR-S)",
            "free_txt": [
              " Statistical error"
            ]
          }
        ]
      },
      "facility": {
        "0": [
          {
            "x4_code": "(CYCLO,2SF JYV)",
            "free_txt": [
              " K-130 cyclotron of the University of",
              "Jyvaskyla, Finland"
            ]
          }
        ]
      },
      "method": {
        "0": [
          {
            "x4_code": "(TOF)",
            "free_txt": [
              " A radio frequency (rf) signal from the cyclotron",
              "was used to get time-of-flight information."
            ]
          }
        ]
      },
      "misc-col": {
        "0": [
          {
            "x4_code": "(MISC)",
            "free_txt": [
              " 22Ne Excitation energy"
            ]
          }
        ]
      }
    },
    "common": {
      "heads": [
        "ANG-CM"
      ],
      "units": [
        "ADEG"
      ],
      "data": [
        [
          180.0
        ]
      ]
    },
    "data": {
      "heads": [
        "EN",
        "DATA",
        "ERR-S",
        "MISC"
      ],
      "units": [
        "MEV",
        "MB/SR",
        "MB/SR",
        "MEV"
      ],
      "data": [
        [
          2.612,
          2.62,
          2.629,
          2.638,
          2.647,
          2.656,
          2.665,
          2.674,
          2.683,
          2.693,
          2.702,
          2.711,
          2.721,
          2.73,
          2.74,
          2.749,
          2.759,
          2.769,
          2.779,
          2.788,
          2.798,
          2.808,
          2.818,
          2.828,
          2.839,
          2.849,
          2.859,
          2.869,
          2.88,
          2.89,
          2.901,
          2.911,
          2.922,
          2.932,
          2.943,
          2.954,
          2.965,
          2.976,
          2.987,
          2.998,
          3.009,
          3.02,
          3.031,
          3.042,
          3.053,
          3.065,
          3.076,
          3.088,
          3.099,
          3.11,
          3.122,
          3.134,
          3.145,
          3.157,
          3.169,
          3.181,
          3.192,
          3.204,
          3.216,
          3.228,
          3.24,
          3.252,
          3.265,
          3.277,
          3.289,
          3.301,
          3.313,
          3.326,
          3.338,
          3.351,
          3.363,
          3.376,
          3.388,
          3.401,
          3.413,
          3.426,
          3.439,
          3.451,
          3.464,
          3.477,
          3.49,
          3.503,
          3.516,
          3.529,
          3.542,
          3.555,
          3.568,
          3.581,
          3.594,
          3.607,
          3.62,
          3.633,
          3.647,
          3.66,
          3.673,
          3.687,
          3.7,
          3.713,
          3.727,
          3.74,
          3.754,
          3.767,
          3.781,
          3.795,
          3.808,
          3.822,
          3.836,
          3.849,
          3.863,
          3.877,
          3.891,
          3.904,
          3.918,
          3.932,
          3.946,
          3.96,
          3.974,
          3.988,
          4.002,
          4.016,
          4.03,
          4.044,
          4.058,
          4.072,
          4.087,
          4.101,
          4.115,
          4.129,
          4.143,
          4.158,
          4.172,
          4.186,
          4.201,
          4.215,
          4.229,
          4.244,
          4.258,
          4.273,
          4.287,
          4.302,
          4.316,
          4.331,
          4.345,
          4.36,
          4.374,
          4.389,
          4.404,
          4.418,
          4.433,
          4.448,
          4.462,
          4.477,
          4.492,
          4.507,
          4.522,
          4.536,
          4.551,
          4.566,
          4.581,
          4.596,
          4.611,
          4.626,
          4.64,
          4.655,
          4.67,
          4.685,
          4.7,
          4.715,
          4.73,
          4.745,
          4.76,
          4.776,
          4.791,
          4.806,
          4.821,
          4.836,
          4.851,
          4.866,
          4.881,
          4.897,
          4.912,
          4.927,
          4.942,
          4.958,
          4.973,
          4.988,
          5.004,
          5.019,
          5.034,
          5.049,
          5.065,
          5.08,
          5.095,
          5.111,
          5.126,
          5.142,
          5.157,
          5.173,
          5.188,
          5.204,
          5.219,
          5.234,
          5.25,
          5.266,
          5.281,
          5.297,
          5.312,
          5.328,
          5.343,
          5.359,
          5.374,
          5.39,
          5.406,
          5.421,
          5.437,
          5.453,
          5.468,
          5.484,
          5.5,
          5.515,
          5.531,
          5.547,
          5.562,
          5.578,
          5.594,
          5.61,
          5.625,
          5.641,
          5.657,
          5.673,
          5.689,
          5.704,
          5.72,
          5.736,
          5.752,
          5.768,
          5.784,
          5.799,
          5.815,
          5.831,
          5.847,
          5.863,
          5.879,
          5.895,
          5.911,
          5.927,
          5.943,
          5.959,
          5.975,
          5.991,
          6.007,
          6.022,
          6.038,
          6.055,
          6.071,
          6.087,
          6.103,
          6.119,
          6.135,
          6.151,
          6.167,
          6.183,
          6.199,
          6.215,
          6.231,
          6.247,
          6.263,
          6.279,
          6.296,
          6.312,
          6.328,
          6.344,
          6.36,
          6.376,
          6.392,
          6.409,
          6.425,
          6.441,
          6.457,
          6.473,
          6.489,
          6.506,
          6.522,
          6.538,
          6.554,
          6.571,
          6.587,
          6.603,
          6.619,
          6.636,
          6.652,
          6.668,
          6.684,
          6.701,
          6.717,
          6.733,
          6.75,
          6.766,
          6.782,
          6.799,
          6.815,
          6.831,
          6.848,
          6.864,
          6.88,
          6.897,
          6.913,
          6.929,
          6.946,
          6.962,
          6.978,
          6.995,
          7.011,
          7.028,
          7.044,
          7.06,
          7.077,
          7.093,
          7.11,
          7.126,
          7.143,
          7.159,
          7.175,
          7.192,
          7.208,
          7.225,
          7.241,
          7.258,
          7.274,
          7.291,
          7.307,
          7.324,
          7.34,
          7.357,
          7.373,
          7.39,
          7.406,
          7.423,
          7.439,
          7.456,
          7.472,
          7.489,
          7.505,
          7.522,
          7.538,
          7.555,
          7.572,
          7.588,
          7.605,
          7.621,
          7.638,
          7.654,
          7.671,
          7.688,
          7.704,
          7.721,
          7.737,
          7.754,
          7.771,
          7.787,
          7.804,
          7.82,
          7.837,
          7.854,
          7.87,
          7.887,
          7.903,
          7.92,
          7.937,
          7.953,
          7.97,
          7.987,
          8.003,
          8.02,
          8.037,
          8.053,
          8.07,
          8.087,
          8.103,
          8.12,
          8.137,
          8.153,
          8.17,
          8.187,
          8.204,
          8.22,
          8.237,
          8.254,
          8.27,
          8.287,
          8.304,
          8.321,
          8.337,
          8.354,
          8.371,
          8.387,
          8.404,
          8.421,
          8.438,
          8.454,
          8.471,
          8.488,
          8.505,
          8.521,
          8.538,
          8.555,
          8.572,
          8.589,
          8.605,
          8.622,
          8.639,
          8.656,
          8.672,
          8.689,
          8.706,
          8.723,
          8.74,
          8.756,
          8.773,
          8.79,
          8.807,
          8.824,
          8.841,
          8.857,
          8.874,
          8.891,
          8.908,
          8.925,
          8.941,
          8.958,
          8.975,
          8.992,
          9.009,
          9.026,
          9.043,
          9.059,
          9.076,
          9.093,
          9.11,
          9.127,
          9.144,
          9.161,
          9.177,
          9.194,
          9.211,
          9.228,
          9.245,
          9.262,
          9.279,
          9.296,
          9.312,
          9.329,
          9.346,
          9.363,
          9.38,
          9.397,
          9.414,
          9.431,
          9.448,
          9.464,
          9.481,
          9.498,
          9.515,
          9.532,
          9.549,
          9.566,
          9.583,
          9.6,
          9.617,
          9.634,
          9.651,
          9.668,
          9.685,
          9.702,
          9.718,
          9.735,
          9.752,
          9.769,
          9.786,
          9.803,
          9.82,
          9.837,
          9.854,
          9.871,
          9.888,
          9.905,
          9.922,
          9.939,
          9.956,
          9.973,
          9.99,
          10.01,
          10.02,
          10.04,
          10.06,
          10.07,
          10.09,
          10.11,
          10.13,
          10.14,
          10.16,
          10.18,
          10.19,
          10.21,
          10.23,
          10.24,
          10.26,
          10.28,
          10.3,
          10.31,
          10.33,
          10.35,
          10.36,
          10.38,
          10.4,
          10.41,
          10.43,
          10.45,
          10.47,
          10.48,
          10.5,
          10.52,
          10.53,
          10.55,
          10.57,
          10.59,
          10.6,
          10.62,
          10.64,
          10.65,
          10.67,
          10.69,
          10.7,
          10.72,
          10.74,
          10.76,
          10.77,
          10.79,
          10.81,
          10.82,
          10.84,
          10.86,
          10.88,
          10.89,
          10.91,
          10.93,
          10.94,
          10.96,
          10.98,
          10.99,
          11.01,
          11.03,
          11.05,
          11.06,
          11.08,
          11.1,
          11.11,
          11.13,
          11.15,
          11.17,
          11.18,
          11.2,
          11.22,
          11.23,
          11.25,
          11.27,
          11.29,
          11.3,
          11.32,
          11.34,
          11.35,
          11.37,
          11.39,
          11.4,
          11.42,
          11.44,
          11.46,
          11.47,
          11.49,
          11.51,
          11.52,
          11.54,
          11.56,
          11.58,
          11.59,
          11.61,
          11.63,
          11.64,
          11.66,
          11.68,
          11.7,
          11.71,
          11.73,
          11.75,
          11.76,
          11.78,
          11.8,
          11.82,
          11.83,
          11.85,
          11.87,
          11.88,
          11.9,
          11.92,
          11.94,
          11.95,
          11.97,
          11.99,
          12.0,
          12.02,
          12.04,
          12.06,
          12.07,
          12.09,
          12.11,
          12.12,
          12.14,
          12.16,
          12.18,
          12.19,
          12.21,
          12.23,
          12.24,
          12.26,
          12.28,
          12.3,
          12.31,
          12.33,
          12.35,
          12.36,
          12.38,
          12.4,
          12.42,
          12.43,
          12.45,
          12.47,
          12.49,
          12.5,
          12.52,
          12.54,
          12.55,
          12.57,
          12.59,
          12.61,
          12.62,
          12.64,
          12.66,
          12.67,
          12.69,
          12.71,
          12.73,
          12.74,
          12.76,
          12.78,
          12.79,
          12.81,
          12.83,
          12.85,
          12.86,
          12.88,
          12.9,
          12.92,
          12.93,
          12.95,
          12.97,
          12.98,
          13.0,
          13.02,
          13.04,
          13.05,
          13.07,
          13.09,
          13.1,
          13.12,
          13.14,
          13.16,
          13.17,
          13.19,
          13.21,
          13.23,
          13.24,
          13.26,
          13.28,
          13.29,
          13.31,
          13.33,
          13.35,
          13.36,
          13.38,
          13.4,
          13.41,
          13.43,
          13.45,
          13.47,
          13.48,
          13.5,
          13.52,
          13.54,
          13.55,
          13.57,
          13.59,
          13.6,
          13.62,
          13.64,
          13.66,
          13.67,
          13.69,
          13.71,
          13.72,
          13.74,
          13.76,
          13.78,
          13.79,
          13.81,
          13.83,
          13.85,
          13.86,
          13.88,
          13.9,
          13.91,
          13.93,
          13.95,
          13.97,
          13.98,
          14.0,
          14.02,
          14.04,
          14.05,
          14.07,
          14.09,
          14.1,
          14.12,
          14.14,
          14.16,
          14.17,
          14.19,
          14.21,
          14.23,
          14.24,
          14.26,
          14.28,
          14.29,
          14.31,
          14.33,
          14.35,
          14.36,
          14.38,
          14.4,
          14.42,
          14.43,
          14.45,
          14.47,
          14.48,
          14.5,
          14.52,
          14.54,
          14.55,
          14.57,
          14.59,
          14.61,
          14.62,
          14.64,
          14.66,
          14.67,
          14.69,
          14.71,
          14.73,
          14.74,
          14.76,
          14.78,
          14.8,
          14.81,
          14.83,
          14.85,
          14.87,
          14.88,
          14.9,
          14.92,
          14.93,
          14.95,
          14.97,
          14.99,
          15.0,
          15.02,
          15.04,
          15.06,
          15.07,
          15.09,
          15.11,
          15.12,
          15.14,
          15.16,
          15.18,
          15.19,
          15.21,
          15.23,
          15.25,
          15.26,
          15.28,
          15.3,
          15.32
        ],
        [
          69.6,
          62.7,
          68.88,
          66.39,
          64.53,
          63.53,
          60.27,
          58.77,
          62.75,
          63.63,
          61.71,
          73.47,
          71.5,
          77.04,
          78.89,
          68.86,
          70.07,
          73.68,
          67.7,
          64.24,
          63.89,
          56.87,
          59.48,
          62.08,
          58.76,
          66.75,
          64.97,
          71.08,
          77.57,
          82.49,
          88.88,
          94.64,
          92.09,
          92.68,
          95.15,
          96.95,
          84.14,
          88.89,
          81.73,
          73.99,
          74.32,
          67.23,
          62.72,
          58.54,
          50.62,
          49.78,
          44.3,
          38.87,
          36.1,
          34.12,
          30.92,
          33.7,
          40.25,
          49.79,
          61.82,
          71.97,
          80.86,
          92.38,
          96.43,
          99.59,
          100.2,
          106.0,
          94.55,
          94.01,
          92.7,
          80.0,
          73.65,
          68.25,
          62.0,
          62.54,
          57.72,
          60.11,
          53.34,
          55.61,
          47.91,
          49.38,
          50.7,
          46.78,
          41.86,
          32.2,
          29.02,
          24.59,
          26.19,
          24.89,
          30.66,
          39.47,
          42.73,
          52.05,
          52.1,
          51.59,
          55.58,
          55.02,
          58.44,
          60.54,
          63.18,
          62.14,
          54.58,
          46.24,
          39.55,
          35.58,
          31.32,
          23.3,
          23.12,
          16.1,
          15.81,
          16.99,
          20.43,
          36.54,
          59.82,
          76.24,
          97.35,
          111.9,
          123.5,
          117.4,
          105.4,
          102.2,
          88.21,
          90.4,
          86.57,
          84.79,
          100.2,
          89.18,
          89.31,
          82.04,
          74.64,
          56.75,
          54.15,
          59.91,
          68.03,
          84.6,
          100.6,
          123.0,
          158.0,
          189.2,
          228.0,
          287.3,
          350.0,
          360.7,
          372.5,
          335.2,
          277.9,
          244.6,
          206.5,
          175.3,
          156.5,
          138.7,
          130.4,
          119.9,
          124.8,
          118.4,
          125.5,
          136.0,
          174.2,
          206.6,
          263.3,
          306.1,
          328.1,
          310.6,
          252.2,
          189.7,
          131.6,
          88.1,
          67.26,
          71.69,
          85.87,
          110.1,
          129.7,
          148.2,
          164.2,
          178.8,
          188.1,
          188.5,
          193.8,
          198.6,
          194.7,
          201.7,
          215.4,
          212.0,
          192.1,
          150.0,
          91.11,
          51.25,
          40.98,
          48.8,
          57.55,
          77.16,
          81.47,
          93.08,
          96.25,
          91.01,
          70.79,
          61.77,
          52.7,
          51.33,
          55.66,
          64.92,
          68.84,
          84.04,
          88.57,
          92.05,
          91.64,
          79.82,
          81.92,
          77.3,
          73.06,
          70.0,
          66.95,
          84.15,
          104.6,
          128.7,
          144.3,
          161.8,
          169.3,
          150.7,
          151.5,
          169.2,
          184.2,
          193.2,
          182.8,
          146.9,
          109.8,
          113.7,
          114.4,
          123.8,
          123.7,
          111.2,
          112.2,
          114.5,
          116.2,
          128.9,
          131.8,
          133.4,
          147.6,
          143.3,
          144.8,
          149.7,
          138.4,
          130.5,
          124.4,
          127.1,
          111.4,
          118.9,
          107.1,
          120.3,
          130.9,
          142.7,
          151.4,
          175.5,
          209.9,
          248.7,
          258.7,
          263.7,
          274.2,
          268.3,
          252.8,
          255.7,
          260.2,
          237.5,
          235.9,
          224.2,
          242.4,
          270.9,
          295.2,
          297.3,
          284.4,
          258.6,
          279.7,
          265.2,
          282.1,
          271.6,
          286.2,
          323.6,
          350.8,
          370.6,
          356.4,
          314.3,
          287.0,
          268.0,
          260.9,
          243.5,
          236.0,
          226.1,
          191.7,
          189.1,
          190.2,
          216.8,
          253.6,
          289.1,
          308.8,
          358.7,
          403.9,
          476.8,
          530.9,
          507.6,
          410.2,
          277.9,
          198.5,
          167.4,
          138.5,
          124.9,
          112.3,
          98.25,
          84.48,
          82.69,
          97.26,
          129.4,
          161.3,
          209.5,
          242.3,
          276.5,
          309.5,
          310.1,
          302.5,
          290.7,
          245.3,
          196.0,
          151.7,
          140.3,
          147.3,
          160.1,
          178.2,
          177.7,
          165.9,
          147.6,
          144.4,
          145.9,
          175.9,
          220.7,
          282.3,
          331.5,
          349.3,
          370.0,
          377.5,
          358.6,
          339.9,
          282.9,
          251.1,
          226.6,
          213.7,
          191.9,
          190.7,
          182.7,
          199.0,
          206.6,
          229.1,
          236.5,
          202.9,
          151.7,
          102.2,
          84.52,
          93.55,
          119.6,
          138.2,
          147.6,
          149.1,
          142.1,
          129.7,
          111.1,
          93.8,
          86.39,
          90.39,
          113.2,
          128.9,
          137.0,
          149.9,
          173.7,
          202.0,
          260.6,
          291.5,
          308.6,
          282.7,
          246.1,
          246.0,
          255.0,
          294.1,
          355.3,
          357.9,
          349.3,
          327.7,
          278.3,
          248.1,
          208.4,
          189.5,
          173.6,
          165.0,
          144.7,
          131.0,
          135.4,
          141.2,
          147.6,
          145.0,
          145.0,
          139.5,
          138.4,
          137.8,
          138.3,
          148.7,
          152.2,
          146.8,
          133.6,
          130.0,
          116.0,
          108.8,
          90.48,
          100.6,
          85.95,
          72.31,
          76.14,
          77.97,
          76.99,
          67.84,
          72.72,
          69.46,
          70.9,
          66.6,
          60.31,
          60.17,
          57.93,
          59.09,
          60.51,
          71.94,
          73.42,
          89.16,
          94.03,
          110.8,
          128.9,
          134.4,
          160.5,
          157.9,
          159.1,
          146.6,
          147.3,
          146.6,
          145.3,
          137.1,
          132.1,
          133.3,
          138.4,
          138.9,
          135.0,
          144.3,
          152.1,
          141.1,
          130.5,
          126.8,
          115.1,
          120.1,
          147.2,
          185.5,
          226.4,
          246.0,
          270.0,
          280.7,
          287.2,
          289.3,
          296.4,
          276.3,
          268.2,
          248.2,
          210.7,
          184.3,
          180.2,
          150.6,
          126.9,
          109.8,
          85.22,
          79.78,
          71.96,
          63.37,
          60.86,
          60.14,
          65.9,
          77.72,
          83.84,
          90.3,
          97.53,
          100.1,
          99.46,
          106.5,
          97.21,
          94.7,
          79.01,
          66.79,
          68.2,
          67.1,
          70.06,
          70.44,
          91.73,
          98.38,
          113.7,
          116.4,
          131.0,
          125.7,
          127.5,
          113.7,
          92.07,
          77.84,
          69.49,
          55.09,
          71.21,
          76.83,
          87.34,
          99.44,
          111.6,
          125.0,
          139.3,
          122.8,
          119.3,
          99.31,
          85.5,
          78.11,
          73.47,
          83.43,
          69.84,
          67.88,
          58.72,
          56.03,
          51.97,
          51.84,
          53.2,
          56.82,
          61.7,
          66.42,
          71.66,
          71.81,
          75.19,
          95.8,
          121.8,
          112.7,
          123.9,
          101.1,
          97.02,
          83.23,
          89.21,
          87.83,
          97.65,
          89.34,
          90.09,
          84.69,
          77.99,
          87.78,
          89.07,
          92.52,
          91.1,
          98.82,
          104.4,
          109.5,
          122.0,
          119.6,
          116.2,
          104.1,
          96.62,
          82.74,
          88.41,
          83.19,
          86.94,
          88.45,
          85.2,
          63.62,
          60.76,
          52.72,
          40.48,
          43.58,
          47.81,
          45.67,
          49.48,
          58.4,
          57.66,
          60.26,
          56.61,
          51.18,
          51.72,
          51.62,
          53.64,
          59.26,
          66.28,
          67.26,
          74.66,
          74.26,
          74.98,
          75.64,
          71.89,
          74.02,
          85.67,
          93.06,
          102.0,
          108.0,
          131.7,
          151.2,
          173.7,
          196.3,
          213.9,
          225.4,
          203.5,
          158.2,
          123.7,
          102.3,
          74.6,
          59.59,
          49.43,
          45.17,
          35.59,
          34.35,
          36.13,
          44.77,
          62.76,
          74.57,
          84.5,
          103.9,
          136.0,
          177.0,
          200.0,
          216.8,
          213.1,
          185.1,
          151.2,
          113.5,
          96.33,
          88.83,
          66.42,
          64.79,
          61.77,
          75.52,
          79.15,
          88.77,
          88.37,
          77.45,
          69.99,
          53.24,
          37.51,
          40.93,
          27.56,
          25.55,
          24.56,
          21.91,
          20.69,
          21.45,
          25.7,
          25.97,
          38.2,
          41.03,
          56.85,
          60.21,
          55.6,
          51.94,
          47.4,
          45.82,
          48.69,
          37.9,
          31.81,
          31.71,
          36.7,
          49.4,
          57.45,
          79.71,
          87.96,
          88.77,
          75.65,
          66.86,
          53.37,
          43.75,
          44.72,
          39.1,
          35.35,
          38.08,
          38.55,
          38.39,
          41.8,
          34.0,
          43.27,
          41.42,
          39.62,
          32.31,
          23.29,
          24.77,
          22.61,
          24.88,
          31.24,
          28.12,
          36.39,
          44.69,
          49.98,
          54.41,
          50.05,
          48.19,
          43.2,
          47.52,
          48.77,
          37.23,
          35.0,
          37.41,
          40.37,
          42.78,
          50.49,
          60.59,
          68.24,
          82.29,
          85.33,
          98.0,
          99.88,
          120.1,
          117.6,
          123.6,
          129.3,
          112.8,
          114.0,
          101.8,
          79.85,
          68.08,
          48.05,
          44.67,
          39.3,
          34.48,
          25.8,
          22.97,
          23.16,
          18.29,
          19.5,
          15.78,
          13.66,
          12.73,
          15.64,
          20.84,
          32.2,
          38.2,
          50.9,
          51.01,
          55.02,
          51.52,
          50.05,
          40.71,
          38.11,
          36.03,
          38.52,
          42.23,
          48.43,
          49.91,
          61.72,
          63.47,
          67.44,
          56.9,
          53.37,
          45.43,
          39.9,
          24.17,
          25.18,
          19.84,
          20.38,
          19.93,
          22.94,
          24.47,
          30.23,
          32.57,
          35.0,
          37.43,
          41.0,
          35.36,
          32.7,
          25.77,
          24.07,
          18.55,
          16.47,
          17.74,
          15.59,
          21.17,
          19.95,
          36.96,
          42.88,
          63.82,
          86.23,
          100.4,
          119.9,
          127.0,
          118.6,
          107.3,
          113.0,
          99.58,
          98.1,
          80.26,
          75.02,
          68.37,
          49.39,
          39.91,
          37.92,
          23.17,
          19.8,
          16.32,
          12.14,
          10.93,
          10.99,
          12.06,
          12.88,
          12.91,
          13.73,
          20.82,
          14.45,
          23.59,
          25.87,
          28.65,
          29.78,
          29.04
        ],
        [
          3.73,
          3.52,
          3.68,
          3.6,
          3.53,
          3.49,
          3.39,
          3.34,
          3.44,
          3.45,
          3.39,
          3.68,
          3.62,
          3.75,
          3.78,
          3.52,
          3.54,
          3.62,
          3.46,
          3.37,
          3.35,
          3.15,
          3.21,
          3.27,
          3.18,
          3.38,
          3.33,
          3.47,
          3.62,
          3.72,
          3.85,
          3.96,
          3.9,
          3.91,
          3.95,
          3.97,
          3.69,
          3.79,
          3.62,
          3.44,
          3.44,
          3.26,
          3.15,
          3.04,
          2.82,
          2.79,
          2.62,
          2.45,
          2.36,
          2.29,
          2.18,
          2.27,
          2.47,
          2.74,
          3.05,
          3.29,
          3.48,
          3.71,
          3.79,
          3.84,
          3.85,
          3.96,
          3.73,
          3.72,
          3.68,
          3.42,
          3.27,
          3.15,
          3.0,
          3.01,
          2.88,
          2.94,
          2.76,
          2.82,
          2.61,
          2.65,
          2.68,
          2.57,
          2.43,
          2.13,
          2.02,
          1.85,
          1.91,
          1.86,
          2.06,
          2.34,
          2.43,
          2.68,
          2.68,
          2.66,
          2.76,
          2.74,
          2.82,
          2.87,
          2.93,
          2.91,
          2.72,
          2.5,
          2.31,
          2.19,
          2.06,
          1.77,
          1.76,
          1.47,
          1.46,
          1.51,
          1.65,
          2.21,
          2.82,
          3.18,
          3.6,
          3.85,
          4.05,
          3.94,
          3.73,
          3.67,
          3.41,
          3.45,
          3.37,
          3.34,
          3.63,
          3.42,
          3.42,
          3.28,
          3.13,
          2.72,
          2.66,
          2.79,
          2.97,
          3.32,
          3.62,
          4.0,
          4.53,
          4.96,
          5.44,
          6.09,
          6.72,
          6.82,
          6.93,
          6.58,
          5.99,
          5.62,
          5.17,
          4.76,
          4.49,
          4.23,
          4.1,
          3.93,
          4.01,
          3.9,
          4.01,
          4.18,
          4.73,
          5.15,
          5.81,
          6.26,
          6.48,
          6.3,
          5.68,
          4.93,
          4.1,
          3.36,
          2.93,
          3.02,
          3.31,
          3.75,
          4.07,
          4.35,
          4.58,
          4.78,
          4.9,
          4.9,
          4.97,
          5.03,
          4.98,
          5.07,
          5.25,
          5.2,
          4.95,
          4.37,
          3.41,
          2.55,
          2.28,
          2.49,
          2.71,
          3.14,
          3.23,
          3.45,
          3.51,
          3.41,
          3.0,
          2.8,
          2.59,
          2.56,
          2.66,
          2.87,
          2.96,
          3.28,
          3.36,
          3.43,
          3.42,
          3.19,
          3.24,
          3.15,
          3.06,
          2.99,
          2.93,
          3.28,
          3.65,
          4.06,
          4.3,
          4.55,
          4.66,
          4.39,
          4.41,
          4.66,
          4.86,
          4.98,
          4.84,
          4.34,
          3.75,
          3.82,
          3.83,
          3.99,
          3.99,
          3.78,
          3.8,
          3.84,
          3.87,
          4.07,
          4.12,
          4.15,
          4.37,
          4.3,
          4.32,
          4.4,
          4.23,
          4.11,
          4.01,
          4.06,
          3.8,
          3.93,
          3.73,
          3.95,
          4.12,
          4.31,
          4.44,
          4.78,
          5.22,
          5.69,
          5.81,
          5.86,
          5.98,
          5.92,
          5.75,
          5.78,
          5.84,
          5.58,
          5.56,
          5.42,
          5.64,
          5.96,
          6.23,
          6.25,
          6.12,
          5.84,
          6.07,
          5.91,
          6.1,
          5.99,
          6.15,
          6.53,
          6.8,
          7.0,
          6.87,
          6.46,
          6.17,
          5.97,
          5.89,
          5.68,
          5.6,
          5.49,
          5.06,
          5.02,
          5.04,
          5.39,
          5.82,
          6.21,
          6.42,
          6.94,
          7.37,
          8.0,
          8.45,
          8.26,
          7.43,
          6.12,
          5.18,
          4.75,
          4.33,
          4.11,
          3.89,
          3.65,
          3.39,
          3.35,
          3.63,
          4.19,
          4.69,
          5.34,
          5.75,
          6.15,
          6.51,
          6.51,
          6.44,
          6.31,
          5.8,
          5.19,
          4.57,
          4.39,
          4.5,
          4.7,
          4.97,
          4.94,
          4.78,
          4.53,
          4.47,
          4.49,
          4.93,
          5.54,
          6.27,
          6.79,
          6.97,
          7.18,
          7.26,
          7.08,
          6.89,
          6.29,
          5.93,
          5.64,
          5.48,
          5.18,
          5.17,
          5.08,
          5.3,
          5.4,
          5.68,
          5.79,
          5.37,
          4.64,
          3.81,
          3.47,
          3.65,
          4.13,
          4.44,
          4.59,
          4.62,
          4.51,
          4.31,
          3.99,
          3.67,
          3.52,
          3.6,
          4.04,
          4.31,
          4.44,
          4.65,
          5.02,
          5.41,
          6.15,
          6.5,
          6.7,
          6.42,
          5.99,
          5.98,
          6.09,
          6.56,
          7.22,
          7.24,
          7.15,
          6.94,
          6.41,
          6.05,
          5.54,
          5.28,
          5.07,
          4.95,
          4.62,
          4.4,
          4.48,
          4.58,
          4.68,
          4.65,
          4.65,
          4.56,
          4.55,
          4.54,
          4.55,
          4.73,
          4.77,
          4.69,
          4.49,
          4.43,
          4.19,
          4.05,
          3.7,
          3.91,
          3.62,
          3.31,
          3.4,
          3.45,
          3.43,
          3.22,
          3.33,
          3.25,
          3.3,
          3.2,
          3.05,
          3.04,
          2.98,
          3.02,
          3.06,
          3.33,
          3.37,
          3.71,
          3.81,
          4.16,
          4.48,
          4.57,
          5.0,
          4.96,
          4.99,
          4.79,
          4.8,
          4.8,
          4.77,
          4.64,
          4.56,
          4.59,
          4.68,
          4.69,
          4.62,
          4.78,
          4.92,
          4.74,
          4.56,
          4.49,
          4.28,
          4.38,
          4.86,
          5.45,
          6.02,
          6.27,
          6.59,
          6.73,
          6.81,
          6.82,
          6.9,
          6.68,
          6.6,
          6.35,
          5.84,
          5.47,
          5.41,
          4.96,
          4.56,
          4.23,
          3.73,
          3.61,
          3.43,
          3.23,
          3.16,
          3.15,
          3.3,
          3.59,
          3.72,
          3.87,
          4.02,
          4.08,
          4.07,
          4.22,
          4.03,
          3.98,
          3.64,
          3.35,
          3.38,
          3.35,
          3.43,
          3.45,
          3.94,
          4.08,
          4.39,
          4.43,
          4.71,
          4.62,
          4.66,
          4.41,
          3.96,
          3.64,
          3.44,
          3.07,
          3.5,
          3.64,
          3.87,
          4.13,
          4.38,
          4.65,
          4.91,
          4.61,
          4.54,
          4.15,
          3.85,
          3.69,
          3.59,
          3.81,
          3.49,
          3.44,
          3.21,
          3.14,
          3.03,
          3.02,
          3.06,
          3.16,
          3.3,
          3.43,
          3.57,
          3.57,
          3.66,
          4.12,
          4.66,
          4.49,
          4.71,
          4.25,
          4.17,
          3.87,
          4.01,
          3.98,
          4.19,
          4.02,
          4.04,
          3.92,
          3.76,
          3.99,
          4.02,
          4.1,
          4.08,
          4.25,
          4.38,
          4.47,
          4.73,
          4.69,
          4.63,
          4.38,
          4.23,
          3.9,
          4.04,
          3.93,
          4.02,
          4.06,
          3.99,
          3.44,
          3.35,
          3.14,
          2.75,
          2.86,
          3.0,
          2.93,
          3.05,
          3.31,
          3.3,
          3.38,
          3.28,
          3.11,
          3.12,
          3.12,
          3.19,
          3.37,
          3.56,
          3.59,
          3.78,
          3.76,
          3.79,
          3.82,
          3.73,
          3.78,
          4.07,
          4.24,
          4.44,
          4.57,
          5.07,
          5.44,
          5.82,
          6.18,
          6.46,
          6.63,
          6.31,
          5.58,
          4.94,
          4.48,
          3.83,
          3.43,
          3.12,
          2.99,
          2.66,
          2.61,
          2.68,
          2.98,
          3.54,
          3.85,
          4.11,
          4.57,
          5.22,
          5.96,
          6.34,
          6.61,
          6.55,
          6.11,
          5.53,
          4.79,
          4.42,
          4.25,
          3.68,
          3.63,
          3.55,
          3.93,
          4.02,
          4.27,
          4.26,
          3.99,
          3.8,
          3.31,
          2.78,
          2.91,
          2.39,
          2.3,
          2.26,
          2.14,
          2.07,
          2.11,
          2.32,
          2.33,
          2.83,
          2.94,
          3.46,
          3.55,
          3.42,
          3.31,
          3.17,
          3.12,
          3.22,
          2.84,
          2.6,
          2.59,
          2.8,
          3.25,
          3.51,
          4.14,
          4.35,
          4.36,
          4.02,
          3.79,
          3.4,
          3.08,
          3.12,
          2.91,
          2.77,
          2.87,
          2.89,
          2.89,
          3.02,
          2.73,
          3.08,
          3.01,
          2.94,
          2.66,
          2.26,
          2.34,
          2.24,
          2.35,
          2.63,
          2.5,
          2.84,
          3.14,
          3.34,
          3.49,
          3.35,
          3.29,
          3.11,
          3.26,
          3.3,
          2.89,
          2.81,
          2.91,
          3.03,
          3.11,
          3.38,
          3.71,
          3.93,
          4.32,
          4.42,
          4.74,
          4.78,
          5.24,
          5.19,
          5.33,
          5.45,
          5.1,
          5.14,
          4.86,
          4.3,
          3.97,
          3.34,
          3.22,
          3.02,
          2.83,
          2.46,
          2.32,
          2.33,
          2.07,
          2.14,
          1.93,
          1.79,
          1.73,
          1.93,
          2.22,
          2.76,
          3.01,
          3.48,
          3.49,
          3.62,
          3.51,
          3.46,
          3.12,
          3.02,
          2.94,
          3.05,
          3.19,
          3.42,
          3.47,
          3.86,
          3.92,
          4.04,
          3.72,
          3.61,
          3.33,
          3.13,
          2.43,
          2.48,
          2.2,
          2.24,
          2.21,
          2.38,
          2.46,
          2.74,
          2.83,
          2.94,
          3.05,
          3.19,
          2.97,
          2.86,
          2.54,
          2.46,
          2.16,
          2.03,
          2.11,
          1.98,
          2.31,
          2.24,
          3.06,
          3.3,
          4.03,
          4.67,
          5.03,
          5.52,
          5.69,
          5.51,
          5.24,
          5.39,
          5.06,
          5.03,
          4.52,
          4.38,
          4.2,
          3.57,
          3.22,
          3.14,
          2.46,
          2.27,
          2.06,
          1.77,
          1.69,
          1.7,
          1.78,
          1.84,
          1.84,
          1.9,
          2.34,
          1.95,
          2.49,
          2.61,
          2.76,
          2.81,
          2.78
        ],
        [
          11.804,
          11.811,
          11.818,
          11.825,
          11.832,
          11.84,
          11.847,
          11.855,
          11.862,
          11.87,
          11.877,
          11.885,
          11.893,
          11.901,
          11.908,
          11.916,
          11.924,
          11.932,
          11.94,
          11.948,
          11.956,
          11.965,
          11.973,
          11.981,
          11.989,
          11.998,
          12.006,
          12.015,
          12.023,
          12.032,
          12.04,
          12.049,
          12.057,
          12.066,
          12.075,
          12.084,
          12.093,
          12.101,
          12.11,
          12.119,
          12.128,
          12.138,
          12.147,
          12.156,
          12.165,
          12.174,
          12.184,
          12.193,
          12.202,
          12.212,
          12.221,
          12.231,
          12.24,
          12.25,
          12.259,
          12.269,
          12.279,
          12.289,
          12.298,
          12.308,
          12.318,
          12.328,
          12.338,
          12.348,
          12.358,
          12.368,
          12.378,
          12.388,
          12.398,
          12.408,
          12.418,
          12.429,
          12.439,
          12.449,
          12.46,
          12.47,
          12.48,
          12.491,
          12.501,
          12.512,
          12.522,
          12.533,
          12.543,
          12.554,
          12.564,
          12.575,
          12.586,
          12.596,
          12.607,
          12.618,
          12.629,
          12.64,
          12.65,
          12.661,
          12.672,
          12.683,
          12.694,
          12.705,
          12.716,
          12.727,
          12.738,
          12.749,
          12.76,
          12.772,
          12.783,
          12.794,
          12.805,
          12.816,
          12.828,
          12.839,
          12.85,
          12.861,
          12.873,
          12.884,
          12.895,
          12.907,
          12.918,
          12.93,
          12.941,
          12.953,
          12.964,
          12.976,
          12.987,
          12.999,
          13.01,
          13.022,
          13.034,
          13.045,
          13.057,
          13.069,
          13.08,
          13.092,
          13.104,
          13.116,
          13.127,
          13.139,
          13.151,
          13.163,
          13.175,
          13.186,
          13.198,
          13.21,
          13.222,
          13.234,
          13.246,
          13.258,
          13.27,
          13.282,
          13.294,
          13.306,
          13.318,
          13.33,
          13.342,
          13.354,
          13.366,
          13.378,
          13.391,
          13.403,
          13.415,
          13.427,
          13.439,
          13.451,
          13.464,
          13.476,
          13.488,
          13.5,
          13.513,
          13.525,
          13.537,
          13.549,
          13.562,
          13.574,
          13.586,
          13.599,
          13.611,
          13.624,
          13.636,
          13.648,
          13.661,
          13.673,
          13.686,
          13.698,
          13.711,
          13.723,
          13.736,
          13.748,
          13.761,
          13.773,
          13.786,
          13.798,
          13.811,
          13.823,
          13.836,
          13.848,
          13.861,
          13.874,
          13.886,
          13.899,
          13.912,
          13.924,
          13.937,
          13.95,
          13.962,
          13.975,
          13.988,
          14.0,
          14.013,
          14.026,
          14.039,
          14.051,
          14.064,
          14.077,
          14.09,
          14.102,
          14.115,
          14.128,
          14.141,
          14.154,
          14.166,
          14.179,
          14.192,
          14.205,
          14.218,
          14.231,
          14.244,
          14.257,
          14.269,
          14.282,
          14.295,
          14.308,
          14.321,
          14.334,
          14.347,
          14.36,
          14.373,
          14.386,
          14.399,
          14.412,
          14.425,
          14.438,
          14.451,
          14.464,
          14.477,
          14.49,
          14.503,
          14.516,
          14.529,
          14.542,
          14.555,
          14.568,
          14.581,
          14.594,
          14.607,
          14.621,
          14.634,
          14.647,
          14.66,
          14.673,
          14.686,
          14.699,
          14.712,
          14.726,
          14.739,
          14.752,
          14.765,
          14.778,
          14.791,
          14.805,
          14.818,
          14.831,
          14.844,
          14.857,
          14.871,
          14.884,
          14.897,
          14.91,
          14.923,
          14.937,
          14.95,
          14.963,
          14.976,
          14.99,
          15.003,
          15.016,
          15.03,
          15.043,
          15.056,
          15.069,
          15.083,
          15.096,
          15.109,
          15.123,
          15.136,
          15.149,
          15.163,
          15.176,
          15.189,
          15.203,
          15.216,
          15.229,
          15.243,
          15.256,
          15.269,
          15.283,
          15.296,
          15.31,
          15.323,
          15.336,
          15.35,
          15.363,
          15.376,
          15.39,
          15.403,
          15.417,
          15.43,
          15.444,
          15.457,
          15.47,
          15.484,
          15.497,
          15.511,
          15.524,
          15.538,
          15.551,
          15.565,
          15.578,
          15.591,
          15.605,
          15.618,
          15.632,
          15.645,
          15.659,
          15.672,
          15.686,
          15.699,
          15.713,
          15.726,
          15.74,
          15.753,
          15.767,
          15.78,
          15.794,
          15.808,
          15.821,
          15.835,
          15.848,
          15.862,
          15.875,
          15.889,
          15.902,
          15.916,
          15.929,
          15.943,
          15.957,
          15.97,
          15.984,
          15.997,
          16.011,
          16.025,
          16.038,
          16.052,
          16.065,
          16.079,
          16.092,
          16.106,
          16.12,
          16.133,
          16.147,
          16.161,
          16.174,
          16.188,
          16.201,
          16.215,
          16.229,
          16.242,
          16.256,
          16.27,
          16.283,
          16.297,
          16.311,
          16.324,
          16.338,
          16.352,
          16.365,
          16.379,
          16.392,
          16.406,
          16.42,
          16.434,
          16.447,
          16.461,
          16.475,
          16.488,
          16.502,
          16.516,
          16.529,
          16.543,
          16.557,
          16.57,
          16.584,
          16.598,
          16.612,
          16.625,
          16.639,
          16.653,
          16.666,
          16.68,
          16.694,
          16.708,
          16.721,
          16.735,
          16.749,
          16.762,
          16.776,
          16.79,
          16.804,
          16.817,
          16.831,
          16.845,
          16.859,
          16.872,
          16.886,
          16.9,
          16.914,
          16.928,
          16.941,
          16.955,
          16.969,
          16.983,
          16.996,
          17.01,
          17.024,
          17.038,
          17.051,
          17.065,
          17.079,
          17.093,
          17.107,
          17.12,
          17.134,
          17.148,
          17.162,
          17.176,
          17.189,
          17.203,
          17.217,
          17.231,
          17.245,
          17.258,
          17.272,
          17.286,
          17.3,
          17.314,
          17.328,
          17.341,
          17.355,
          17.369,
          17.383,
          17.397,
          17.41,
          17.424,
          17.438,
          17.452,
          17.466,
          17.48,
          17.494,
          17.507,
          17.521,
          17.535,
          17.549,
          17.563,
          17.577,
          17.591,
          17.604,
          17.618,
          17.632,
          17.646,
          17.66,
          17.674,
          17.688,
          17.702,
          17.715,
          17.729,
          17.743,
          17.757,
          17.771,
          17.785,
          17.799,
          17.813,
          17.826,
          17.84,
          17.854,
          17.868,
          17.882,
          17.896,
          17.91,
          17.924,
          17.938,
          17.952,
          17.965,
          17.979,
          17.993,
          18.007,
          18.021,
          18.035,
          18.049,
          18.063,
          18.077,
          18.091,
          18.105,
          18.118,
          18.132,
          18.146,
          18.16,
          18.174,
          18.188,
          18.202,
          18.216,
          18.23,
          18.244,
          18.258,
          18.272,
          18.286,
          18.3,
          18.313,
          18.327,
          18.341,
          18.355,
          18.369,
          18.383,
          18.397,
          18.411,
          18.425,
          18.439,
          18.453,
          18.467,
          18.481,
          18.495,
          18.509,
          18.523,
          18.537,
          18.551,
          18.565,
          18.579,
          18.593,
          18.606,
          18.62,
          18.634,
          18.648,
          18.662,
          18.676,
          18.69,
          18.704,
          18.718,
          18.732,
          18.746,
          18.76,
          18.774,
          18.788,
          18.802,
          18.816,
          18.83,
          18.844,
          18.858,
          18.872,
          18.886,
          18.9,
          18.914,
          18.928,
          18.942,
          18.956,
          18.97,
          18.984,
          18.998,
          19.012,
          19.026,
          19.04,
          19.054,
          19.068,
          19.082,
          19.096,
          19.11,
          19.124,
          19.138,
          19.152,
          19.166,
          19.18,
          19.194,
          19.208,
          19.222,
          19.236,
          19.25,
          19.264,
          19.278,
          19.292,
          19.306,
          19.32,
          19.334,
          19.348,
          19.362,
          19.376,
          19.39,
          19.404,
          19.418,
          19.433,
          19.447,
          19.461,
          19.475,
          19.489,
          19.503,
          19.517,
          19.531,
          19.545,
          19.559,
          19.573,
          19.587,
          19.601,
          19.615,
          19.629,
          19.643,
          19.657,
          19.671,
          19.685,
          19.699,
          19.713,
          19.727,
          19.741,
          19.756,
          19.77,
          19.784,
          19.798,
          19.812,
          19.826,
          19.84,
          19.854,
          19.868,
          19.882,
          19.896,
          19.91,
          19.924,
          19.938,
          19.952,
          19.966,
          19.98,
          19.995,
          20.009,
          20.023,
          20.037,
          20.051,
          20.065,
          20.079,
          20.093,
          20.107,
          20.121,
          20.135,
          20.149,
          20.163,
          20.177,
          20.192,
          20.206,
          20.22,
          20.234,
          20.248,
          20.262,
          20.276,
          20.29,
          20.304,
          20.318,
          20.332,
          20.346,
          20.36,
          20.375,
          20.389,
          20.403,
          20.417,
          20.431,
          20.445,
          20.459,
          20.473,
          20.487,
          20.502,
          20.516,
          20.53,
          20.544,
          20.558,
          20.572,
          20.586,
          20.6,
          20.614,
          20.628,
          20.642,
          20.657,
          20.671,
          20.685,
          20.699,
          20.713,
          20.727,
          20.741,
          20.755,
          20.769,
          20.783,
          20.798,
          20.812,
          20.826,
          20.84,
          20.854,
          20.868,
          20.882,
          20.896,
          20.91,
          20.925,
          20.939,
          20.953,
          20.967,
          20.981,
          20.995,
          21.009,
          21.023,
          21.038,
          21.052,
          21.066,
          21.08,
          21.094,
          21.108,
          21.122,
          21.136,
          21.151,
          21.165,
          21.179,
          21.193,
          21.207,
          21.221,
          21.235,
          21.249,
          21.264,
          21.278,
          21.292,
          21.306,
          21.32,
          21.334,
          21.348,
          21.363,
          21.377,
          21.391,
          21.405,
          21.419,
          21.433,
          21.447,
          21.461,
          21.476,
          21.49,
          21.504,
          21.518,
          21.532,
          21.546,
          21.56,
          21.575,
          21.589,
          21.603,
          21.617,
          21.631,
          21.645,
          21.659,
          21.674,
          21.688,
          21.702,
          21.716,
          21.73,
          21.744,
          21.758,
          21.773,
          21.787,
          21.801,
          21.815,
          21.829,
          21.843,
          21.858,
          21.872,
          21.886,
          21.9,
          21.914,
          21.928,
          21.942,
          21.957,
          21.971,
          21.985,
          21.999,
          22.013,
          22.027,
          22.042,
          22.056,
          22.07,
          22.084,
          22.098,
          22.112,
          22.126,
          22.141,
          22.155,
          22.169,
          22.183,
          22.197
        ]
      ]
    }
  },
  "D0352-003": {
    "reaction": {
      "0": {
        "x4_code": "(8-O-18(A,EL)8-O-18,,DA)",
        "0": {
          "code": [
            "8-O-18",
            [
              "A,EL"
            ],
            "8-O-18,,DA"
          ],
          "type": null,
          "target": "8-O-18",
          "process": "A,EL",
          "sf49": "8-O-18,,DA",
          "sf4": "8-O-18",
          "sf5": null,
          "sf6": "DA",
          "sf7": null,
          "sf8": null,
          "sf9": null
        },
        "type": null,
        "free_text": ""
      }
    },
    "extra_information": {
      "detector": {
        "0": [
          {
            "x4_code": "(TELES,SI,SI)",
            "free_txt": [
              " An array of Si detectors positioned in",
              "the forward direction was used to detect the",
              "recoil aparticles."
            ]
          }
        ]
      },
      "err-analys": {
        "0": [
          {
            "x4_code": "(ERR-S)",
            "free_txt": [
              " Statistical error"
            ]
          }
        ]
      },
      "facility": {
        "0": [
          {
            "x4_code": "(CYCLO,2SF JYV)",
            "free_txt": [
              " K-130 cyclotron of the University of",
              "Jyvaskyla, Finland"
            ]
          }
        ]
      },
      "method": {
        "0": [
          {
            "x4_code": "(TOF)",
            "free_txt": [
              " A radio frequency (rf) signal from the cyclotron",
              "was used to get time-of-flight information."
            ]
          }
        ]
      },
      "misc-col": {
        "0": [
          {
            "x4_code": "(MISC)",
            "free_txt": [
              " 22Ne Excitation energy"
            ]
          }
        ]
      }
    },
    "common": null,
    "data": {
      "heads": [
        "ANG-CM",
        "EN",
        "DATA",
        "ERR-S",
        "MISC"
      ],
      "units": [
        "ADEG",
        "MEV",
        "MB/SR",
        "MB/SR",
        "MEV"
      ],
      "data": [
        [
          136.0,
          136.0,
          136.0,
          136.0,
          136.0,
          136.0,
          136.0,
          136.0,
          136.0,
          136.0,
          136.0,
          136.0,
          136.0,
          136.0,
          136.0,
          136.0,
          136.0,
          136.0,
          136.0,
          136.0,
          136.0,
          136.0,
          136.0,
          136.0,
          136.0,
          136.0,
          136.0,
          136.0,
          136.0,
          136.0,
          136.0,
          136.0,
          136.0,
          136.0,
          136.0,
          136.0,
          136.0,
          136.0,
          136.0,
          136.0,
          136.0,
          136.0,
          136.0,
          136.0,
          136.0,
          136.0,
          136.0,
          136.0,
          136.0,
          136.0,
          136.0,
          136.0,
          136.0,
          136.0,
          136.0,
          136.0,
          136.0,
          136.0,
          136.0,
          136.0,
          136.0,
          136.0,
          136.0,
          136.0,
          138.0,
          138.0,
          138.0,
          138.0,
          138.0,
          138.0,
          138.0,
          138.0,
          138.0,
          138.0,
          138.0,
          138.0,
          138.0,
          138.0,
          138.0,
          138.0,
          138.0,
          138.0,
          138.0,
          138.0,
          138.0,
          138.0,
          138.0,
          138.0,
          138.0,
          138.0,
          138.0,
          138.0,
          138.0,
          138.0,
          138.0,
          138.0,
          138.0,
          138.0,
          138.0,
          138.0,
          138.0,
          138.0,
          138.0,
          138.0,
          138.0,
          138.0,
          138.0,
          138.0,
          138.0,
          138.0,
          138.0,
          138.0,
          138.0,
          138.0,
          138.0,
          138.0,
          138.0,
          138.0,
          138.0,
          138.0,
          138.0,
          138.0,
          138.0,
          138.0,
          138.0,
          138.0,
          138.0,
          138.0,
          138.0,
          138.0,
          138.0,
          138.0,
          138.0,
          138.0,
          138.0,
          138.0,
          138.0,
          138.0,
          145.0,
          145.0,
          145.0,
          145.0,
          145.0,
          145.0,
          145.0,
          145.0,
          145.0,
          145.0,
          145.0,
          145.0,
          145.0,
          145.0,
          145.0,
          145.0,
          145.0,
          145.0,
          145.0,
          145.0,
          145.0,
          145.0,
          145.0,
          145.0,
          145.0,
          145.0,
          145.0,
          145.0,
          145.0,
          145.0,
          145.0,
          145.0,
          145.0,
          145.0,
          145.0,
          145.0,
          145.0,
          145.0,
          145.0,
          150.0,
          150.0,
          150.0,
          150.0,
          150.0,
          150.0,
          150.0,
          150.0,
          150.0,
          150.0,
          150.0,
          150.0,
          150.0,
          150.0,
          150.0,
          150.0,
          150.0,
          150.0,
          150.0,
          150.0,
          150.0,
          150.0,
          150.0,
          150.0,
          150.0,
          150.0,
          150.0,
          150.0,
          150.0,
          150.0,
          150.0,
          150.0,
          150.0,
          150.0,
          150.0,
          150.0,
          150.0,
          150.0,
          150.0,
          150.0,
          150.0,
          150.0,
          150.0,
          150.0,
          150.0,
          150.0,
          150.0,
          150.0,
          150.0,
          150.0,
          150.0,
          150.0,
          150.0,
          150.0,
          150.0,
          150.0,
          150.0,
          151.0,
          151.0,
          151.0,
          151.0,
          151.0,
          151.0,
          151.0,
          151.0,
          151.0,
          151.0,
          151.0,
          151.0,
          151.0,
          151.0,
          151.0,
          151.0,
          151.0,
          151.0,
          151.0,
          151.0,
          151.0,
          151.0,
          151.0,
          151.0,
          151.0,
          151.0,
          151.0,
          151.0,
          151.0,
          151.0,
          151.0,
          151.0,
          151.0,
          151.0,
          151.0,
          151.0,
          151.0,
          151.0,
          151.0,
          152.0,
          152.0,
          152.0,
          152.0,
          152.0,
          152.0,
          152.0,
          152.0,
          152.0,
          152.0,
          152.0,
          152.0,
          152.0,
          152.0,
          152.0,
          152.0,
          152.0,
          152.0,
          152.0,
          152.0,
          152.0,
          152.0,
          152.0,
          152.0,
          152.0,
          152.0,
          152.0,
          152.0,
          152.0,
          152.0,
          152.0,
          152.0,
          152.0,
          152.0,
          152.0,
          152.0,
          152.0,
          152.0,
          152.0,
          152.0,
          152.0,
          152.0,
          152.0,
          152.0,
          152.0,
          152.0,
          152.0,
          152.0,
          152.0,
          152.0,
          152.0,
          152.0,
          152.0,
          152.0,
          152.0,
          152.0,
          152.0,
          152.0,
          152.0,
          152.0,
          152.0,
          152.0,
          152.0,
          152.0,
          152.0,
          152.0,
          152.0,
          152.0,
          152.0,
          152.0,
          152.0,
          152.0,
          152.0,
          152.0,
          152.0,
          152.0,
          152.0,
          152.0,
          152.0,
          152.0,
          153.0,
          153.0,
          153.0,
          153.0,
          153.0,
          153.0,
          153.0,
          153.0,
          153.0,
          153.0,
          153.0,
          153.0,
          153.0,
          153.0,
          153.0,
          153.0,
          153.0,
          153.0,
          153.0,
          153.0,
          153.0,
          153.0,
          153.0,
          153.0,
          153.0,
          153.0,
          153.0,
          153.0,
          153.0,
          153.0,
          153.0,
          153.0,
          153.0,
          153.0,
          153.0,
          153.0,
          153.0,
          153.0,
          153.0,
          153.0,
          153.0,
          153.0,
          153.0,
          153.0,
          153.0,
          153.0,
          153.0,
          153.0,
          153.0,
          153.0,
          153.0,
          153.0,
          153.0,
          153.0,
          153.0,
          153.0,
          153.0,
          153.0,
          153.0,
          153.0,
          153.0,
          153.0,
          153.0,
          153.0,
          153.0,
          153.0,
          153.0,
          153.0,
          153.0,
          153.0,
          153.0,
          153.0,
          153.0,
          153.0,
          157.0,
          157.0,
          157.0,
          157.0,
          157.0,
          157.0,
          157.0,
          157.0,
          157.0,
          157.0,
          157.0,
          157.0,
          157.0,
          157.0,
          157.0,
          157.0,
          157.0,
          157.0,
          157.0,
          157.0,
          157.0,
          157.0,
          157.0,
          157.0,
          157.0,
          157.0,
          157.0,
          157.0,
          157.0,
          157.0,
          157.0,
          157.0,
          157.0,
          157.0,
          157.0,
          157.0,
          157.0,
          157.0,
          157.0,
          157.0,
          157.0,
          157.0,
          157.0,
          157.0,
          157.0,
          157.0,
          157.0,
          157.0,
          157.0,
          157.0,
          157.0,
          157.0,
          157.0,
          157.0,
          157.0,
          157.0,
          157.0,
          157.0,
          157.0,
          157.0,
          157.0,
          157.0,
          157.0,
          157.0,
          157.0,
          157.0,
          157.0,
          157.0,
          157.0,
          157.0,
          157.0,
          158.0,
          158.0,
          158.0,
          158.0,
          158.0,
          158.0,
          158.0,
          158.0,
          158.0,
          158.0,
          158.0,
          158.0,
          158.0,
          158.0,
          158.0,
          158.0,
          158.0,
          158.0,
          158.0,
          158.0,
          158.0,
          158.0,
          158.0,
          158.0,
          158.0,
          158.0,
          158.0,
          158.0,
          158.0,
          158.0,
          158.0,
          158.0,
          158.0,
          158.0,
          158.0,
          158.0,
          158.0,
          158.0,
          158.0,
          158.0,
          158.0,
          158.0,
          158.0,
          158.0,
          158.0,
          158.0,
          158.0,
          158.0,
          158.0,
          158.0,
          158.0,
          158.0,
          158.0,
          158.0,
          158.0,
          158.0,
          158.0,
          159.0,
          159.0,
          159.0,
          159.0,
          159.0,
          159.0,
          159.0,
          159.0,
          159.0,
          159.0,
          159.0,
          159.0,
          159.0,
          159.0,
          159.0,
          159.0,
          159.0,
          159.0,
          159.0,
          159.0,
          159.0,
          159.0,
          159.0,
          159.0,
          159.0,
          159.0,
          159.0,
          159.0,
          159.0,
          159.0,
          159.0,
          159.0,
          159.0,
          159.0,
          159.0,
          159.0,
          159.0,
          159.0,
          159.0,
          159.0,
          159.0,
          159.0,
          159.0,
          159.0,
          159.0,
          159.0,
          159.0,
          159.0,
          159.0,
          159.0,
          159.0,
          159.0,
          159.0,
          159.0,
          159.0,
          159.0,
          159.0,
          159.0,
          159.0,
          159.0,
          159.0,
          159.0,
          159.0,
          159.0,
          159.0,
          159.0,
          159.0,
          159.0,
          159.0,
          159.0,
          159.0,
          159.0,
          159.0,
          159.0,
          159.0,
          159.0,
          159.0,
          159.0,
          159.0,
          159.0,
          160.0,
          160.0,
          160.0,
          160.0,
          160.0,
          160.0,
          160.0,
          160.0,
          160.0,
          160.0,
          160.0,
          160.0,
          160.0,
          160.0,
          160.0,
          160.0,
          160.0,
          160.0,
          160.0,
          160.0,
          160.0,
          160.0,
          160.0,
          160.0,
          160.0,
          160.0,
          160.0,
          160.0,
          160.0,
          160.0,
          160.0,
          160.0,
          160.0,
          160.0,
          160.0,
          160.0,
          160.0,
          160.0,
          160.0,
          161.0,
          161.0,
          161.0,
          161.0,
          161.0,
          161.0,
          161.0,
          161.0,
          161.0,
          161.0,
          161.0,
          161.0,
          161.0,
          161.0,
          161.0,
          161.0,
          161.0,
          161.0,
          161.0,
          161.0,
          161.0,
          161.0,
          161.0,
          161.0,
          161.0,
          161.0,
          161.0,
          161.0,
          161.0,
          161.0,
          161.0,
          161.0,
          161.0,
          161.0,
          161.0,
          161.0,
          161.0,
          161.0,
          161.0,
          161.0,
          161.0,
          161.0,
          161.0,
          161.0,
          161.0,
          161.0,
          161.0,
          161.0,
          161.0,
          161.0,
          161.0,
          161.0,
          161.0,
          161.0,
          161.0,
          161.0,
          161.0,
          161.0,
          161.0,
          161.0,
          161.0,
          161.0,
          161.0,
          161.0,
          161.0,
          161.0,
          161.0,
          164.0,
          164.0,
          164.0,
          164.0,
          164.0,
          164.0,
          164.0,
          164.0,
          164.0,
          164.0,
          164.0,
          164.0,
          164.0,
          164.0,
          164.0,
          164.0,
          164.0,
          164.0,
          164.0,
          164.0,
          164.0,
          164.0,
          164.0,
          164.0,
          164.0,
          164.0,
          164.0,
          164.0,
          164.0,
          164.0,
          164.0,
          164.0,
          164.0,
          164.0,
          164.0,
          164.0,
          164.0,
          164.0,
          164.0,
          164.0,
          164.0,
          164.0,
          164.0,
          164.0,
          164.0,
          164.0,
          164.0,
          164.0,
          164.0,
          164.0,
          164.0,
          164.0,
          164.0,
          164.0,
          164.0,
          164.0,
          165.0,
          165.0,
          165.0,
          165.0,
          165.0,
          165.0,
          165.0,
          165.0,
          165.0,
          165.0,
          165.0,
          165.0,
          165.0,
          165.0,
          165.0,
          165.0,
          165.0,
          165.0,
          165.0,
          165.0,
          165.0,
          165.0,
          165.0,
          165.0,
          165.0,
          165.0,
          165.0,
          165.0,
          165.0,
          165.0,
          165.0,
          165.0,
          165.0,
          165.0,
          165.0,
          165.0,
          165.0,
          165.0,
          165.0,
          165.0,
          165.0,
          165.0,
          165.0,
          165.0,
          165.0,
          165.0,
          165.0,
          165.0,
          165.0,
          165.0,
          165.0,
          165.0,
          165.0,
          165.0,
          165.0,
          165.0,
          165.0,
          165.0,
          165.0,
          165.0,
          165.0,
          165.0,
          165.0,
          165.0,
          165.0,
          165.0,
          165.0,
          165.0,
          165.0,
          165.0,
          165.0,
          169.0,
          169.0,
          169.0,
          169.0,
          169.0,
          169.0,
          169.0,
          169.0,
          169.0,
          169.0,
          169.0,
          169.0,
          169.0,
          169.0,
          169.0,
          169.0,
          169.0,
          169.0,
          169.0,
          169.0,
          169.0,
          169.0,
          169.0,
          169.0,
          169.0,
          169.0,
          169.0,
          169.0,
          169.0,
          169.0,
          169.0,
          169.0,
          169.0,
          169.0,
          169.0,
          169.0,
          169.0,
          169.0,
          169.0,
          169.0,
          169.0,
          169.0,
          169.0,
          169.0,
          169.0,
          169.0,
          169.0,
          169.0,
          169.0,
          169.0,
          169.0,
          169.0,
          169.0,
          169.0,
          169.0,
          169.0,
          169.0,
          169.0,
          169.0,
          169.0,
          169.0,
          169.0,
          169.0,
          169.0,
          171.0,
          171.0,
          171.0,
          171.0,
          171.0,
          171.0,
          171.0,
          171.0,
          171.0,
          171.0,
          171.0,
          171.0,
          171.0,
          171.0,
          171.0,
          171.0,
          171.0,
          171.0,
          171.0,
          171.0,
          171.0,
          171.0,
          171.0,
          171.0,
          171.0,
          171.0,
          171.0,
          171.0,
          171.0,
          171.0,
          171.0,
          171.0,
          171.0,
          171.0,
          171.0,
          171.0,
          171.0,
          171.0,
          171.0,
          176.0,
          176.0,
          176.0,
          176.0,
          176.0,
          176.0,
          176.0,
          176.0,
          176.0,
          176.0,
          176.0,
          176.0,
          176.0,
          176.0,
          176.0,
          176.0,
          176.0,
          176.0,
          176.0,
          176.0,
          176.0,
          176.0,
          176.0,
          176.0,
          176.0,
          176.0,
          176.0,
          176.0,
          176.0,
          176.0,
          176.0,
          176.0,
          176.0,
          176.0,
          176.0,
          176.0,
          176.0,
          176.0,
          176.0,
          176.0,
          176.0,
          176.0,
          176.0,
          176.0,
          176.0,
          176.0,
          176.0,
          176.0,
          176.0,
          176.0,
          176.0,
          176.0,
          176.0,
          176.0,
          176.0,
          176.0,
          176.0,
          176.0,
          176.0,
          176.0,
          176.0,
          176.0,
          176.0,
          176.0,
          176.0,
          176.0,
          176.0,
          176.0,
          176.0,
          176.0,
          176.0,
          176.0,
          176.0,
          176.0,
          176.0,
          176.0,
          176.0,
          176.0,
          176.0,
          176.0,
          176.0,
          176.0,
          176.0,
          176.0,
          176.0,
          176.0,
          176.0,
          176.0,
          176.0,
          176.0,
          176.0,
          176.0,
          176.0,
          176.0,
          176.0,
          176.0,
          176.0,
          176.0,
          176.0,
          176.0,
          176.0,
          176.0,
          176.0,
          176.0,
          176.0,
          176.0,
          176.0,
          176.0,
          176.0,
          176.0,
          176.0,
          176.0,
          176.0,
          176.0,
          176.0,
          176.0,
          176.0,
          176.0,
          176.0,
          176.0,
          176.0,
          176.0,
          176.0,
          176.0,
          176.0,
          176.0,
          176.0,
          176.0,
          176.0,
          176.0,
          176.0,
          176.0,
          176.0,
          176.0,
          176.0,
          176.0,
          176.0,
          176.0,
          176.0,
          176.0,
          176.0,
          176.0,
          176.0,
          176.0,
          176.0,
          176.0,
          176.0,
          176.0,
          176.0,
          176.0,
          176.0,
          176.0,
          176.0,
          176.0,
          176.0,
          176.0,
          176.0,
          176.0,
          176.0,
          176.0,
          176.0,
          176.0,
          176.0,
          176.0,
          176.0,
          176.0,
          176.0,
          176.0,
          176.0,
          176.0,
          176.0,
          176.0,
          176.0,
          176.0,
          176.0,
          176.0,
          176.0,
          176.0,
          176.0,
          176.0,
          176.0,
          176.0,
          176.0,
          176.0,
          176.0,
          176.0,
          176.0,
          176.0,
          176.0,
          176.0,
          176.0,
          176.0,
          176.0,
          176.0,
          176.0,
          176.0,
          176.0,
          176.0,
          176.0,
          176.0,
          176.0,
          176.0,
          176.0,
          176.0,
          176.0,
          176.0,
          176.0,
          176.0,
          176.0,
          176.0,
          176.0,
          176.0
        ],
        [
          3.296,
          3.307,
          3.317,
          3.327,
          3.338,
          3.348,
          3.359,
          3.369,
          3.38,
          3.391,
          3.402,
          3.412,
          3.423,
          3.434,
          3.445,
          3.456,
          3.467,
          3.478,
          3.49,
          3.501,
          3.512,
          3.523,
          3.535,
          3.546,
          3.558,
          3.569,
          3.581,
          3.593,
          3.604,
          3.616,
          3.628,
          3.64,
          3.652,
          3.664,
          3.676,
          3.688,
          3.7,
          3.712,
          3.724,
          3.736,
          3.749,
          3.761,
          3.773,
          3.786,
          3.798,
          3.811,
          3.823,
          3.836,
          3.848,
          3.861,
          3.874,
          3.886,
          3.899,
          3.912,
          3.925,
          3.937,
          3.95,
          3.963,
          3.976,
          3.989,
          4.002,
          4.015,
          4.029,
          4.042,
          3.712,
          3.724,
          3.736,
          3.749,
          3.761,
          3.773,
          3.786,
          3.798,
          3.811,
          3.823,
          3.836,
          3.848,
          3.861,
          3.874,
          3.886,
          3.899,
          3.912,
          3.925,
          3.937,
          3.95,
          3.963,
          3.976,
          3.989,
          4.002,
          4.015,
          4.029,
          4.042,
          4.055,
          4.068,
          4.081,
          4.094,
          4.108,
          4.121,
          4.134,
          4.148,
          4.161,
          4.175,
          4.188,
          4.202,
          4.215,
          4.229,
          4.242,
          4.256,
          4.27,
          4.283,
          4.297,
          4.311,
          4.324,
          4.338,
          4.352,
          4.366,
          4.38,
          4.393,
          4.407,
          4.421,
          4.435,
          4.449,
          4.463,
          4.477,
          4.491,
          4.505,
          4.519,
          4.533,
          4.547,
          4.562,
          4.576,
          4.59,
          4.604,
          4.618,
          4.633,
          4.647,
          4.661,
          4.675,
          4.69,
          4.693,
          4.707,
          4.722,
          4.736,
          4.751,
          4.765,
          4.78,
          4.794,
          4.809,
          4.823,
          4.838,
          4.853,
          4.867,
          4.882,
          4.896,
          4.911,
          4.926,
          4.94,
          4.955,
          4.97,
          4.985,
          4.999,
          5.014,
          5.029,
          5.044,
          5.058,
          5.073,
          5.088,
          5.103,
          5.118,
          5.133,
          5.148,
          5.162,
          5.177,
          5.192,
          5.207,
          5.222,
          5.237,
          5.252,
          3.321,
          3.333,
          3.345,
          3.356,
          3.368,
          3.38,
          3.392,
          3.403,
          3.415,
          3.427,
          3.439,
          3.451,
          3.463,
          3.476,
          3.488,
          3.5,
          3.512,
          3.525,
          3.537,
          3.549,
          3.562,
          3.574,
          3.587,
          3.599,
          3.612,
          3.624,
          3.637,
          3.65,
          3.663,
          3.675,
          3.688,
          3.701,
          3.714,
          3.727,
          3.74,
          3.753,
          3.766,
          3.779,
          3.792,
          3.805,
          3.818,
          3.831,
          3.845,
          3.858,
          3.871,
          3.884,
          3.898,
          3.911,
          3.924,
          3.938,
          3.951,
          3.965,
          3.978,
          3.992,
          4.005,
          4.019,
          4.033,
          4.695,
          4.71,
          4.725,
          4.739,
          4.754,
          4.769,
          4.783,
          4.798,
          4.813,
          4.828,
          4.842,
          4.857,
          4.872,
          4.887,
          4.902,
          4.917,
          4.931,
          4.946,
          4.961,
          4.976,
          4.991,
          5.006,
          5.021,
          5.036,
          5.051,
          5.066,
          5.081,
          5.096,
          5.111,
          5.126,
          5.141,
          5.156,
          5.171,
          5.186,
          5.202,
          5.217,
          5.232,
          5.247,
          5.262,
          3.599,
          3.612,
          3.624,
          3.637,
          3.65,
          3.663,
          3.675,
          3.688,
          3.701,
          3.714,
          3.727,
          3.74,
          3.753,
          3.766,
          3.779,
          3.792,
          3.805,
          3.818,
          3.831,
          3.845,
          3.858,
          3.871,
          3.884,
          3.898,
          3.911,
          3.924,
          3.938,
          3.951,
          3.965,
          3.978,
          3.992,
          4.005,
          4.019,
          4.033,
          4.046,
          4.06,
          4.074,
          4.088,
          4.101,
          4.115,
          4.129,
          4.143,
          4.157,
          4.171,
          4.184,
          4.198,
          4.212,
          4.226,
          4.24,
          4.254,
          4.268,
          4.282,
          4.297,
          4.311,
          4.325,
          4.339,
          4.353,
          4.367,
          4.382,
          4.396,
          4.41,
          4.424,
          4.439,
          4.453,
          4.467,
          4.482,
          4.496,
          4.511,
          4.525,
          4.54,
          4.554,
          4.569,
          4.583,
          4.598,
          4.612,
          4.627,
          4.641,
          4.656,
          4.67,
          4.685,
          2.611,
          2.617,
          2.624,
          2.631,
          2.638,
          2.645,
          2.652,
          2.66,
          2.667,
          2.675,
          2.682,
          2.69,
          2.697,
          2.705,
          2.713,
          2.721,
          2.729,
          2.738,
          2.746,
          2.754,
          2.763,
          2.771,
          2.78,
          2.789,
          2.797,
          2.806,
          2.815,
          2.824,
          2.833,
          2.843,
          2.852,
          2.861,
          2.87,
          2.88,
          2.889,
          2.899,
          2.908,
          2.918,
          2.928,
          2.938,
          2.948,
          2.957,
          2.967,
          2.977,
          2.988,
          2.998,
          3.008,
          3.018,
          3.028,
          3.039,
          3.049,
          3.06,
          3.07,
          3.081,
          3.091,
          3.102,
          3.113,
          3.124,
          3.134,
          3.145,
          3.156,
          3.167,
          3.178,
          3.19,
          3.201,
          3.212,
          3.223,
          3.235,
          3.246,
          3.257,
          3.269,
          3.28,
          3.292,
          3.304,
          2.61,
          2.617,
          2.625,
          2.632,
          2.64,
          2.647,
          2.655,
          2.663,
          2.671,
          2.679,
          2.687,
          2.695,
          2.704,
          2.712,
          2.72,
          2.729,
          2.738,
          2.746,
          2.755,
          2.764,
          2.773,
          2.782,
          2.791,
          2.8,
          2.81,
          2.819,
          2.828,
          2.838,
          2.847,
          2.857,
          2.866,
          2.876,
          2.886,
          2.895,
          2.905,
          2.915,
          2.925,
          2.935,
          2.945,
          2.955,
          2.965,
          2.976,
          2.986,
          2.996,
          3.007,
          3.017,
          3.028,
          3.038,
          3.049,
          3.059,
          3.07,
          3.081,
          3.092,
          3.103,
          3.114,
          3.125,
          3.136,
          3.147,
          3.158,
          3.169,
          3.18,
          3.192,
          3.203,
          3.214,
          3.226,
          3.237,
          3.249,
          3.261,
          3.272,
          3.284,
          3.296,
          3.319,
          3.331,
          3.343,
          3.355,
          3.367,
          3.379,
          3.391,
          3.403,
          3.416,
          3.428,
          3.44,
          3.452,
          3.465,
          3.477,
          3.489,
          3.502,
          3.514,
          3.527,
          3.54,
          3.552,
          3.565,
          3.578,
          3.59,
          3.603,
          3.616,
          3.629,
          3.641,
          3.654,
          3.667,
          3.68,
          3.693,
          3.706,
          3.719,
          3.732,
          3.746,
          3.759,
          3.772,
          3.785,
          3.798,
          3.812,
          3.825,
          3.838,
          3.852,
          3.865,
          3.879,
          3.892,
          3.906,
          3.919,
          3.933,
          3.946,
          3.96,
          3.973,
          3.987,
          4.001,
          4.014,
          4.028,
          4.042,
          3.59,
          3.603,
          3.616,
          3.629,
          3.641,
          3.654,
          3.667,
          3.68,
          3.693,
          3.706,
          3.719,
          3.732,
          3.746,
          3.759,
          3.772,
          3.785,
          3.798,
          3.812,
          3.825,
          3.838,
          3.852,
          3.865,
          3.879,
          3.892,
          3.906,
          3.919,
          3.933,
          3.946,
          3.96,
          3.973,
          3.987,
          4.001,
          4.014,
          4.028,
          4.042,
          4.056,
          4.07,
          4.083,
          4.097,
          4.111,
          4.125,
          4.139,
          4.153,
          4.167,
          4.181,
          4.195,
          4.209,
          4.223,
          4.237,
          4.251,
          4.265,
          4.28,
          4.294,
          4.308,
          4.322,
          4.336,
          4.351,
          4.365,
          4.379,
          4.394,
          4.408,
          4.422,
          4.437,
          4.451,
          4.465,
          4.48,
          4.494,
          4.509,
          4.523,
          4.538,
          4.552,
          4.567,
          4.582,
          4.596,
          4.611,
          4.625,
          4.64,
          4.655,
          4.669,
          4.684,
          4.699,
          4.713,
          4.728,
          4.743,
          4.758,
          4.772,
          4.787,
          4.802,
          4.817,
          4.832,
          4.847,
          4.861,
          4.876,
          4.891,
          4.906,
          4.921,
          4.936,
          4.951,
          4.966,
          4.981,
          4.996,
          5.011,
          5.026,
          5.041,
          5.056,
          5.071,
          5.086,
          5.101,
          5.116,
          5.132,
          5.147,
          5.162,
          5.177,
          5.192,
          5.207,
          5.222,
          5.238,
          5.253,
          5.268,
          2.628,
          2.637,
          2.645,
          2.653,
          2.661,
          2.67,
          2.678,
          2.687,
          2.696,
          2.705,
          2.714,
          2.723,
          2.732,
          2.741,
          2.75,
          2.759,
          2.769,
          2.778,
          2.788,
          2.797,
          2.807,
          2.816,
          2.826,
          2.836,
          2.846,
          2.856,
          2.866,
          2.876,
          2.886,
          2.896,
          2.906,
          2.916,
          2.927,
          2.937,
          2.948,
          2.958,
          2.969,
          2.979,
          2.99,
          3.001,
          3.011,
          3.022,
          3.033,
          3.044,
          3.055,
          3.066,
          3.077,
          3.089,
          3.1,
          3.111,
          3.122,
          3.134,
          3.145,
          3.157,
          3.168,
          3.18,
          3.192,
          3.203,
          3.215,
          3.227,
          3.239,
          3.251,
          3.263,
          3.274,
          3.287,
          3.299,
          3.311,
          3.324,
          3.336,
          3.348,
          3.36,
          3.372,
          3.384,
          3.396,
          3.408,
          3.421,
          3.433,
          3.445,
          3.457,
          3.47,
          3.482,
          3.495,
          3.507,
          3.52,
          3.532,
          3.545,
          3.557,
          3.57,
          3.582,
          3.595,
          3.608,
          3.621,
          3.633,
          3.646,
          3.659,
          3.672,
          3.685,
          3.698,
          3.711,
          3.724,
          3.737,
          3.75,
          3.763,
          3.776,
          3.789,
          3.803,
          3.816,
          3.829,
          3.842,
          3.856,
          3.869,
          3.882,
          3.896,
          3.909,
          3.923,
          3.936,
          3.95,
          3.963,
          3.977,
          3.99,
          4.004,
          4.017,
          4.031,
          3.711,
          3.724,
          3.737,
          3.75,
          3.763,
          3.776,
          3.789,
          3.803,
          3.816,
          3.829,
          3.842,
          3.856,
          3.869,
          3.882,
          3.896,
          3.909,
          3.923,
          3.936,
          3.95,
          3.963,
          3.977,
          3.99,
          4.004,
          4.017,
          4.031,
          4.045,
          4.058,
          4.072,
          4.086,
          4.1,
          4.113,
          4.127,
          4.141,
          4.155,
          4.169,
          4.183,
          4.197,
          4.211,
          4.225,
          4.239,
          4.253,
          4.267,
          4.281,
          4.295,
          4.309,
          4.323,
          4.337,
          4.351,
          4.365,
          4.38,
          4.394,
          4.408,
          4.422,
          4.436,
          4.451,
          4.465,
          4.479,
          4.494,
          4.508,
          4.522,
          4.537,
          4.551,
          4.566,
          4.58,
          4.595,
          4.609,
          4.624,
          4.638,
          4.653,
          4.667,
          4.682,
          2.639,
          2.647,
          2.656,
          2.665,
          2.674,
          2.683,
          2.692,
          2.701,
          2.71,
          2.72,
          2.729,
          2.739,
          2.748,
          2.757,
          2.767,
          2.777,
          2.787,
          2.796,
          2.806,
          2.816,
          2.826,
          2.836,
          2.846,
          2.856,
          2.866,
          2.877,
          2.887,
          2.897,
          2.908,
          2.918,
          2.929,
          2.939,
          2.95,
          2.961,
          2.971,
          2.982,
          2.993,
          3.004,
          3.015,
          3.026,
          3.037,
          3.048,
          3.06,
          3.071,
          3.082,
          3.094,
          3.105,
          3.116,
          3.128,
          3.14,
          3.151,
          3.163,
          3.174,
          3.186,
          3.198,
          3.21,
          3.222,
          3.234,
          3.246,
          3.258,
          3.27,
          3.282,
          3.294,
          3.306,
          4.674,
          4.689,
          4.704,
          4.719,
          4.734,
          4.749,
          4.764,
          4.779,
          4.794,
          4.809,
          4.824,
          4.839,
          4.854,
          4.87,
          4.885,
          4.9,
          4.915,
          4.93,
          4.946,
          4.961,
          4.976,
          4.991,
          5.007,
          5.022,
          5.037,
          5.053,
          5.068,
          5.083,
          5.099,
          5.114,
          5.129,
          5.145,
          5.16,
          5.176,
          5.191,
          5.207,
          5.222,
          5.238,
          5.253,
          2.559,
          2.567,
          2.575,
          2.583,
          2.591,
          2.6,
          2.608,
          2.617,
          2.626,
          2.634,
          2.643,
          2.652,
          2.661,
          2.67,
          2.679,
          2.688,
          2.698,
          2.707,
          2.716,
          2.726,
          2.735,
          2.745,
          2.755,
          2.764,
          2.774,
          2.784,
          2.794,
          2.804,
          2.814,
          2.824,
          2.834,
          2.844,
          2.854,
          2.864,
          2.875,
          2.885,
          2.895,
          2.906,
          2.917,
          2.927,
          2.938,
          2.949,
          2.959,
          2.97,
          2.981,
          2.992,
          3.003,
          3.014,
          3.025,
          3.036,
          3.048,
          3.059,
          3.07,
          3.082,
          3.093,
          3.104,
          3.116,
          3.128,
          3.139,
          3.151,
          3.163,
          3.174,
          3.186,
          3.198,
          3.21,
          3.222,
          3.234,
          3.246,
          3.258,
          3.27,
          3.282,
          3.295,
          3.307,
          3.307,
          3.319,
          3.331,
          3.344,
          3.356,
          3.369,
          3.381,
          3.394,
          3.406,
          3.419,
          3.432,
          3.444,
          3.457,
          3.47,
          3.483,
          3.496,
          3.508,
          3.521,
          3.534,
          3.547,
          3.56,
          3.573,
          3.586,
          3.6,
          3.613,
          3.626,
          3.639,
          3.653,
          3.666,
          3.679,
          3.693,
          3.706,
          3.719,
          3.733,
          3.746,
          3.76,
          3.773,
          3.787,
          3.801,
          3.814,
          3.828,
          3.841,
          3.855,
          3.869,
          3.883,
          3.897,
          3.91,
          3.924,
          3.938,
          3.952,
          3.966,
          3.98,
          3.994,
          4.008,
          4.022,
          4.036,
          4.05,
          4.064,
          4.078,
          4.093,
          4.107,
          4.121,
          4.135,
          4.149,
          4.164,
          4.178,
          4.192,
          4.207,
          4.221,
          4.236,
          4.25,
          4.264,
          4.279,
          4.293,
          4.308,
          4.322,
          4.337,
          4.351,
          4.366,
          4.381,
          4.395,
          4.41,
          4.425,
          4.439,
          4.454,
          4.469,
          4.483,
          4.498,
          4.513,
          4.528,
          4.543,
          4.557,
          4.572,
          4.587,
          4.602,
          4.617,
          4.632,
          4.647,
          4.662,
          4.677,
          4.692,
          4.707,
          4.722,
          4.737,
          4.752,
          4.767,
          4.782,
          4.797,
          4.812,
          4.827,
          4.842,
          4.857,
          4.873,
          4.888,
          4.903,
          4.918,
          4.933,
          4.949,
          4.964,
          4.979,
          4.994,
          5.01,
          5.025,
          5.04,
          5.056,
          5.071,
          5.086,
          5.102,
          5.117,
          5.133,
          5.148,
          5.163,
          5.179,
          5.194,
          5.21,
          5.225,
          5.241,
          5.256,
          5.272
        ],
        [
          44.51,
          45.11,
          45.9,
          47.9,
          42.49,
          46.33,
          51.56,
          52.48,
          53.4,
          56.58,
          46.79,
          57.12,
          46.57,
          44.96,
          46.1,
          50.9,
          39.03,
          44.98,
          39.38,
          40.5,
          34.23,
          40.69,
          43.55,
          38.15,
          38.22,
          34.38,
          36.31,
          36.7,
          34.88,
          41.31,
          36.78,
          34.28,
          34.86,
          38.83,
          37.76,
          36.73,
          40.69,
          37.71,
          35.94,
          37.0,
          30.4,
          35.37,
          31.28,
          41.75,
          38.35,
          36.87,
          36.5,
          39.22,
          37.24,
          45.83,
          43.8,
          40.45,
          47.28,
          49.34,
          48.02,
          54.76,
          56.71,
          61.32,
          60.76,
          64.02,
          72.24,
          65.61,
          68.22,
          66.82,
          37.71,
          35.94,
          37.0,
          30.4,
          35.37,
          31.28,
          41.75,
          38.35,
          36.87,
          36.5,
          39.22,
          37.24,
          45.83,
          43.8,
          40.45,
          47.28,
          49.34,
          48.02,
          54.76,
          56.71,
          61.32,
          60.76,
          64.02,
          72.24,
          65.61,
          68.22,
          66.82,
          71.16,
          72.83,
          75.71,
          73.03,
          68.68,
          75.39,
          73.49,
          68.51,
          72.58,
          73.69,
          72.86,
          68.18,
          66.71,
          70.63,
          71.72,
          60.66,
          73.87,
          69.98,
          70.09,
          67.19,
          72.05,
          71.68,
          60.75,
          69.75,
          74.64,
          78.57,
          71.28,
          73.52,
          67.63,
          68.55,
          71.36,
          70.49,
          69.92,
          73.47,
          68.66,
          67.04,
          72.63,
          74.49,
          64.32,
          61.75,
          68.34,
          64.74,
          63.71,
          65.0,
          60.21,
          63.42,
          65.5,
          75.44,
          74.93,
          76.08,
          82.44,
          79.98,
          92.76,
          91.65,
          93.27,
          99.54,
          99.68,
          104.8,
          104.2,
          100.2,
          104.6,
          110.0,
          104.9,
          99.25,
          104.4,
          98.99,
          100.7,
          89.94,
          91.52,
          89.84,
          89.72,
          91.19,
          85.1,
          81.82,
          84.97,
          78.92,
          81.44,
          92.18,
          82.97,
          87.48,
          87.16,
          91.97,
          87.49,
          90.22,
          92.23,
          92.52,
          74.86,
          79.6,
          66.15,
          65.01,
          59.8,
          64.02,
          62.76,
          55.77,
          57.71,
          56.66,
          50.16,
          51.23,
          45.81,
          47.06,
          40.7,
          45.73,
          39.64,
          38.07,
          35.29,
          40.49,
          40.45,
          33.31,
          40.12,
          42.62,
          35.23,
          42.34,
          35.99,
          39.85,
          33.17,
          38.2,
          38.3,
          41.76,
          35.97,
          37.27,
          37.79,
          36.14,
          32.35,
          37.33,
          35.53,
          40.32,
          33.09,
          34.4,
          37.43,
          40.27,
          50.02,
          47.38,
          56.99,
          66.19,
          59.59,
          65.73,
          69.36,
          77.89,
          79.85,
          78.06,
          76.29,
          81.73,
          80.19,
          68.62,
          69.83,
          70.39,
          78.36,
          77.78,
          92.98,
          90.59,
          109.8,
          100.5,
          109.1,
          108.9,
          102.3,
          107.3,
          94.52,
          101.0,
          101.0,
          85.08,
          81.58,
          81.32,
          74.28,
          73.87,
          69.98,
          71.69,
          60.48,
          62.72,
          59.22,
          66.02,
          59.99,
          60.02,
          65.46,
          69.37,
          63.23,
          62.81,
          70.16,
          68.56,
          74.71,
          68.86,
          73.23,
          69.12,
          42.62,
          35.23,
          42.34,
          35.99,
          39.85,
          33.17,
          38.2,
          38.3,
          41.76,
          35.97,
          37.27,
          37.79,
          36.14,
          32.35,
          37.33,
          35.53,
          40.32,
          33.09,
          34.4,
          37.43,
          40.27,
          50.02,
          47.38,
          56.99,
          66.19,
          59.59,
          65.73,
          69.36,
          77.89,
          79.85,
          78.06,
          76.29,
          81.73,
          80.19,
          82.88,
          79.93,
          68.5,
          76.52,
          75.6,
          72.68,
          75.55,
          76.48,
          72.58,
          73.87,
          81.46,
          81.84,
          82.15,
          89.49,
          96.49,
          93.79,
          101.6,
          111.8,
          106.9,
          117.6,
          112.1,
          107.2,
          119.0,
          117.4,
          114.0,
          109.1,
          111.7,
          109.5,
          103.4,
          99.86,
          109.8,
          105.5,
          104.9,
          108.1,
          104.0,
          104.4,
          95.5,
          110.7,
          106.0,
          96.05,
          95.2,
          88.5,
          90.77,
          77.73,
          85.55,
          79.38,
          77.91,
          94.75,
          99.42,
          95.33,
          90.51,
          85.01,
          91.72,
          87.13,
          78.73,
          81.91,
          76.33,
          76.45,
          81.31,
          73.0,
          69.75,
          76.47,
          73.81,
          70.26,
          72.87,
          71.95,
          67.8,
          63.03,
          64.21,
          65.6,
          65.26,
          60.61,
          68.02,
          65.58,
          65.16,
          70.55,
          77.58,
          70.58,
          73.09,
          70.35,
          77.18,
          69.08,
          78.21,
          70.33,
          75.49,
          74.82,
          75.84,
          72.68,
          74.68,
          77.26,
          74.13,
          68.31,
          74.96,
          62.08,
          74.26,
          68.95,
          63.67,
          62.78,
          61.54,
          58.67,
          57.71,
          61.97,
          58.5,
          56.28,
          63.41,
          57.59,
          63.67,
          63.21,
          62.56,
          66.71,
          66.39,
          68.2,
          71.61,
          70.97,
          82.03,
          82.62,
          82.33,
          89.82,
          79.84,
          81.09,
          93.02,
          91.16,
          87.5,
          78.63,
          78.63,
          81.33,
          84.66,
          66.55,
          79.35,
          76.78,
          69.36,
          70.99,
          72.16,
          65.65,
          66.25,
          65.65,
          64.67,
          68.3,
          67.51,
          61.93,
          69.34,
          66.37,
          71.55,
          66.46,
          66.76,
          63.85,
          60.79,
          61.18,
          67.5,
          70.8,
          68.56,
          68.92,
          72.54,
          78.28,
          78.21,
          74.22,
          83.41,
          75.39,
          78.62,
          79.38,
          84.84,
          82.99,
          85.09,
          70.35,
          72.69,
          68.11,
          66.77,
          56.71,
          62.44,
          58.95,
          57.33,
          61.18,
          61.73,
          58.03,
          53.51,
          55.49,
          58.09,
          58.0,
          57.51,
          74.85,
          72.38,
          72.27,
          76.1,
          86.64,
          83.16,
          82.67,
          87.59,
          83.35,
          88.22,
          86.65,
          88.01,
          76.92,
          75.71,
          73.92,
          63.69,
          61.91,
          62.23,
          58.64,
          51.5,
          52.53,
          49.09,
          49.93,
          44.07,
          44.4,
          37.3,
          37.06,
          36.39,
          39.77,
          33.44,
          38.93,
          36.4,
          39.08,
          38.6,
          38.95,
          44.27,
          46.44,
          46.02,
          46.88,
          52.98,
          51.2,
          46.74,
          44.61,
          41.8,
          45.29,
          42.81,
          40.22,
          40.04,
          38.47,
          33.88,
          35.34,
          36.67,
          35.84,
          37.48,
          50.59,
          51.21,
          60.53,
          60.75,
          69.94,
          74.79,
          80.02,
          86.33,
          93.57,
          89.0,
          89.21,
          91.98,
          87.66,
          93.54,
          86.75,
          38.95,
          44.27,
          46.44,
          46.02,
          46.88,
          52.98,
          51.2,
          46.74,
          44.61,
          41.8,
          45.29,
          42.81,
          40.22,
          40.04,
          38.47,
          33.88,
          35.34,
          36.67,
          35.84,
          37.48,
          50.59,
          51.21,
          60.53,
          60.75,
          69.94,
          74.79,
          80.02,
          86.33,
          93.57,
          89.0,
          89.21,
          91.98,
          87.66,
          93.54,
          86.75,
          85.05,
          82.86,
          77.1,
          80.58,
          82.29,
          75.5,
          74.35,
          84.37,
          94.67,
          104.8,
          105.9,
          114.8,
          128.5,
          138.2,
          153.1,
          160.8,
          163.6,
          171.5,
          172.0,
          164.2,
          171.9,
          157.3,
          145.4,
          145.6,
          134.2,
          126.6,
          124.6,
          119.6,
          127.3,
          126.1,
          121.3,
          131.7,
          144.3,
          137.1,
          139.6,
          147.9,
          147.3,
          143.1,
          131.4,
          126.8,
          117.9,
          96.45,
          97.21,
          90.35,
          90.03,
          93.38,
          104.3,
          108.1,
          117.2,
          118.4,
          129.4,
          139.6,
          136.0,
          147.8,
          145.0,
          142.5,
          139.0,
          133.7,
          122.6,
          111.1,
          102.1,
          92.38,
          86.65,
          78.94,
          69.57,
          71.91,
          66.75,
          70.19,
          69.08,
          68.65,
          74.48,
          66.37,
          66.34,
          70.95,
          67.18,
          72.42,
          76.76,
          81.1,
          80.03,
          81.63,
          85.08,
          87.04,
          79.93,
          82.75,
          83.75,
          68.43,
          72.59,
          66.5,
          64.65,
          69.18,
          61.76,
          71.12,
          62.68,
          66.82,
          60.92,
          67.37,
          67.73,
          68.72,
          69.7,
          64.19,
          67.08,
          65.19,
          69.26,
          64.76,
          66.21,
          66.03,
          65.25,
          64.52,
          59.25,
          64.88,
          68.08,
          70.81,
          70.21,
          82.73,
          74.21,
          84.28,
          78.69,
          80.51,
          93.56,
          83.16,
          84.37,
          82.92,
          76.71,
          77.32,
          74.42,
          72.07,
          69.75,
          70.32,
          63.56,
          53.64,
          61.03,
          49.1,
          49.05,
          52.69,
          44.96,
          46.49,
          47.33,
          53.33,
          63.4,
          58.37,
          70.56,
          81.13,
          84.35,
          89.04,
          99.89,
          96.35,
          92.19,
          90.22,
          91.47,
          84.29,
          78.98,
          93.15,
          94.57,
          97.3,
          96.6,
          90.59,
          94.1,
          85.95,
          76.19,
          73.37,
          66.48,
          72.03,
          61.36,
          55.14,
          56.09,
          50.46,
          56.6,
          46.84,
          41.13,
          44.07,
          40.65,
          36.76,
          35.28,
          34.43,
          31.84,
          39.02,
          35.42,
          40.32,
          38.36,
          45.31,
          45.7,
          48.12,
          53.65,
          56.55,
          56.02,
          59.96,
          54.74,
          59.12,
          49.47,
          46.02,
          45.95,
          40.96,
          32.93,
          33.17,
          27.61,
          25.27,
          27.81,
          30.2,
          38.52,
          46.08,
          56.29,
          63.59,
          70.6,
          80.63,
          94.24,
          102.2,
          104.4,
          53.65,
          56.55,
          56.02,
          59.96,
          54.74,
          59.12,
          49.47,
          46.02,
          45.95,
          40.96,
          32.93,
          33.17,
          27.61,
          25.27,
          27.81,
          30.2,
          38.52,
          46.08,
          56.29,
          63.59,
          70.6,
          80.63,
          94.24,
          102.2,
          104.4,
          98.9,
          97.72,
          93.89,
          91.59,
          92.57,
          88.05,
          86.36,
          89.7,
          83.2,
          78.33,
          68.86,
          73.39,
          76.16,
          80.84,
          87.57,
          99.75,
          112.8,
          128.7,
          151.3,
          172.6,
          189.2,
          220.4,
          223.5,
          245.2,
          240.8,
          233.1,
          223.9,
          203.9,
          174.5,
          160.1,
          137.8,
          128.8,
          126.6,
          124.6,
          126.0,
          126.2,
          143.9,
          146.2,
          160.1,
          180.0,
          202.1,
          192.8,
          207.4,
          195.0,
          179.3,
          148.2,
          70.78,
          63.48,
          56.71,
          62.43,
          58.49,
          61.84,
          64.55,
          65.25,
          60.19,
          66.63,
          68.64,
          68.67,
          64.38,
          74.75,
          69.37,
          65.12,
          63.24,
          63.92,
          60.66,
          64.48,
          57.74,
          65.49,
          64.61,
          62.91,
          73.19,
          75.46,
          79.73,
          79.56,
          78.96,
          84.3,
          89.78,
          87.54,
          91.35,
          78.08,
          86.14,
          75.53,
          73.8,
          73.8,
          72.67,
          71.37,
          62.61,
          56.1,
          49.62,
          50.05,
          41.94,
          39.22,
          38.17,
          38.91,
          40.37,
          42.72,
          48.87,
          47.08,
          56.94,
          70.12,
          71.66,
          79.74,
          88.92,
          93.63,
          98.67,
          96.34,
          93.85,
          93.07,
          82.87,
          78.96,
          77.78,
          96.33,
          126.7,
          136.6,
          152.7,
          161.2,
          159.0,
          175.7,
          172.7,
          190.3,
          189.9,
          188.5,
          190.6,
          179.2,
          169.1,
          141.0,
          112.4,
          78.59,
          58.53,
          57.21,
          57.22,
          69.94,
          75.11,
          79.44,
          77.39,
          77.92,
          73.71,
          69.65,
          55.26,
          57.14,
          55.52,
          60.55,
          72.79,
          78.74,
          92.04,
          82.83,
          91.44,
          92.2,
          79.06,
          56.27,
          66.24,
          70.88,
          85.37,
          75.23,
          63.02,
          77.44,
          72.09,
          65.98,
          64.99,
          71.37,
          64.59,
          62.3,
          61.1,
          67.3,
          67.53,
          66.83,
          75.86,
          72.24,
          77.25,
          69.44,
          73.2,
          74.32,
          74.74,
          58.78,
          67.39,
          68.07,
          68.09,
          60.93,
          63.11,
          57.41,
          65.36,
          60.86,
          66.05,
          75.24,
          74.6,
          81.59,
          82.89,
          95.64,
          93.24,
          93.56,
          103.4,
          90.78,
          89.79,
          81.39,
          81.27,
          77.23,
          68.4,
          67.59,
          62.75,
          59.66,
          55.21,
          49.93,
          46.79,
          43.34,
          39.58,
          37.37,
          39.25,
          42.31,
          45.68,
          54.57,
          61.72,
          72.7,
          87.63,
          89.87,
          109.1,
          94.0,
          102.3,
          98.12,
          95.43,
          97.6,
          86.0,
          86.6,
          86.64,
          73.63,
          67.82,
          57.54,
          53.85,
          55.77,
          52.73,
          58.59,
          51.59,
          55.08,
          49.13,
          48.39,
          41.54,
          41.44,
          33.7,
          30.33,
          22.63,
          27.38,
          31.35,
          32.84,
          46.78,
          45.78,
          52.59,
          47.74,
          50.55,
          49.84,
          53.4,
          56.2,
          57.65,
          61.36,
          55.21,
          52.25,
          44.03,
          39.76,
          31.58,
          28.03,
          21.82,
          21.48,
          17.58,
          16.06,
          23.61,
          31.87,
          45.8,
          64.78,
          83.03,
          100.7,
          114.3,
          121.0,
          103.1,
          104.4,
          91.45,
          83.37,
          88.48,
          88.57,
          81.58,
          93.25,
          90.41,
          83.5,
          71.19,
          69.53,
          60.39,
          52.58,
          54.68,
          71.99,
          89.59,
          118.2,
          138.3,
          161.4,
          205.6,
          234.2,
          281.8,
          321.4,
          355.1,
          339.1,
          302.2,
          256.8,
          226.3,
          188.0,
          167.7,
          144.8,
          130.5,
          120.3,
          115.3,
          120.4,
          126.0,
          122.4,
          144.2,
          177.2,
          225.4,
          260.2,
          298.8,
          309.8,
          264.8,
          238.7,
          165.7,
          117.6,
          71.46,
          66.0,
          69.56,
          94.15,
          110.5,
          135.6,
          149.0,
          168.7,
          174.1,
          185.7,
          189.0,
          184.3,
          183.7,
          206.4,
          210.1,
          197.1,
          201.7,
          179.0,
          130.1,
          79.12,
          48.28,
          39.92,
          50.21,
          63.05,
          80.1,
          83.94,
          84.08,
          85.2,
          83.77,
          80.15,
          54.87,
          53.52,
          63.1,
          58.47,
          69.85,
          77.64,
          81.25,
          84.04,
          96.43,
          94.22,
          86.86,
          83.27,
          78.88
        ],
        [
          3.06,
          3.07,
          3.09,
          3.14,
          2.95,
          3.08,
          3.23,
          3.25,
          3.27,
          3.36,
          3.05,
          3.37,
          3.03,
          2.97,
          3.0,
          3.14,
          2.75,
          2.94,
          2.74,
          2.77,
          2.54,
          2.77,
          2.86,
          2.67,
          2.67,
          2.53,
          2.59,
          2.6,
          2.53,
          2.75,
          2.59,
          2.49,
          2.51,
          2.64,
          2.6,
          2.56,
          2.69,
          2.58,
          2.52,
          2.55,
          2.3,
          2.48,
          2.33,
          2.69,
          2.57,
          2.52,
          2.51,
          2.6,
          2.53,
          2.8,
          2.73,
          2.62,
          2.83,
          2.89,
          2.84,
          3.03,
          3.08,
          3.2,
          3.18,
          3.25,
          3.45,
          3.29,
          3.35,
          3.32,
          2.58,
          2.52,
          2.55,
          2.3,
          2.48,
          2.33,
          2.69,
          2.57,
          2.52,
          2.51,
          2.6,
          2.53,
          2.8,
          2.73,
          2.62,
          2.83,
          2.89,
          2.84,
          3.03,
          3.08,
          3.2,
          3.18,
          3.25,
          3.45,
          3.29,
          3.35,
          3.32,
          3.42,
          3.46,
          3.52,
          3.45,
          3.34,
          3.5,
          3.45,
          3.33,
          3.43,
          3.45,
          3.42,
          3.31,
          3.27,
          3.36,
          3.38,
          3.11,
          3.43,
          3.34,
          3.34,
          3.26,
          3.37,
          3.36,
          3.09,
          3.31,
          3.43,
          3.52,
          3.35,
          3.4,
          3.25,
          3.27,
          3.34,
          3.32,
          3.3,
          3.38,
          3.27,
          3.23,
          3.36,
          3.4,
          3.15,
          3.09,
          3.25,
          3.16,
          3.14,
          3.17,
          3.04,
          3.12,
          3.17,
          3.3,
          3.28,
          3.31,
          3.45,
          3.4,
          3.65,
          3.63,
          3.66,
          3.78,
          3.79,
          3.88,
          3.87,
          3.79,
          3.88,
          3.97,
          3.88,
          3.77,
          3.86,
          3.76,
          3.8,
          3.59,
          3.62,
          3.59,
          3.58,
          3.61,
          3.49,
          3.42,
          3.49,
          3.36,
          3.41,
          3.62,
          3.44,
          3.53,
          3.52,
          3.62,
          3.53,
          3.59,
          3.63,
          3.63,
          4.04,
          4.16,
          3.78,
          3.74,
          3.58,
          3.7,
          3.65,
          3.44,
          3.49,
          3.45,
          3.24,
          3.27,
          3.09,
          3.12,
          2.9,
          3.07,
          2.85,
          2.79,
          2.68,
          2.87,
          2.87,
          2.6,
          2.85,
          2.93,
          2.66,
          2.91,
          2.68,
          2.82,
          2.57,
          2.75,
          2.75,
          2.87,
          2.66,
          2.7,
          2.72,
          2.66,
          2.51,
          2.69,
          2.63,
          2.8,
          2.53,
          2.58,
          2.69,
          2.79,
          3.1,
          3.01,
          3.3,
          3.55,
          3.37,
          3.53,
          3.63,
          3.84,
          3.88,
          3.84,
          3.79,
          3.92,
          3.89,
          3.23,
          3.26,
          3.27,
          3.45,
          3.43,
          3.75,
          3.7,
          4.08,
          3.9,
          4.06,
          4.06,
          3.93,
          4.03,
          3.78,
          3.91,
          3.91,
          3.58,
          3.51,
          3.51,
          3.35,
          3.34,
          3.25,
          3.29,
          3.02,
          3.08,
          2.99,
          3.16,
          3.01,
          3.01,
          3.14,
          3.23,
          3.08,
          3.08,
          3.25,
          3.21,
          3.35,
          3.22,
          3.32,
          3.23,
          2.93,
          2.66,
          2.91,
          2.68,
          2.82,
          2.57,
          2.75,
          2.75,
          2.87,
          2.66,
          2.7,
          2.72,
          2.66,
          2.51,
          2.69,
          2.63,
          2.8,
          2.53,
          2.58,
          2.69,
          2.79,
          3.1,
          3.01,
          3.3,
          3.55,
          3.37,
          3.53,
          3.63,
          3.84,
          3.88,
          3.84,
          3.79,
          3.92,
          3.89,
          3.95,
          3.87,
          3.58,
          3.78,
          3.75,
          3.68,
          3.74,
          3.77,
          3.67,
          3.7,
          3.89,
          3.89,
          3.89,
          4.06,
          4.21,
          4.15,
          4.32,
          4.53,
          4.43,
          4.65,
          4.53,
          4.43,
          4.66,
          4.63,
          4.56,
          4.46,
          4.51,
          4.46,
          4.33,
          4.26,
          4.46,
          4.37,
          4.36,
          4.43,
          4.34,
          4.35,
          4.16,
          4.47,
          4.37,
          4.16,
          4.14,
          3.99,
          4.04,
          3.74,
          3.92,
          3.78,
          4.75,
          5.21,
          5.3,
          5.15,
          4.99,
          4.81,
          4.96,
          4.8,
          4.54,
          4.6,
          4.41,
          4.39,
          4.5,
          4.24,
          4.12,
          4.29,
          4.2,
          4.08,
          4.13,
          4.09,
          3.95,
          3.79,
          3.8,
          3.83,
          3.8,
          3.65,
          3.85,
          3.77,
          3.74,
          3.88,
          4.06,
          3.86,
          3.92,
          3.83,
          4.0,
          3.77,
          4.0,
          3.78,
          3.9,
          3.87,
          3.89,
          3.8,
          3.84,
          3.9,
          3.81,
          3.65,
          3.81,
          3.46,
          3.77,
          3.63,
          3.48,
          3.45,
          3.4,
          3.32,
          3.28,
          3.4,
          3.29,
          3.22,
          3.4,
          3.23,
          3.39,
          3.37,
          3.35,
          3.45,
          3.43,
          3.47,
          3.55,
          3.53,
          3.78,
          3.79,
          3.78,
          3.94,
          3.71,
          3.73,
          4.72,
          4.64,
          4.52,
          4.26,
          4.23,
          4.28,
          4.34,
          3.83,
          4.16,
          4.07,
          3.85,
          3.87,
          3.89,
          3.69,
          3.69,
          3.65,
          3.61,
          3.69,
          3.66,
          3.49,
          3.68,
          3.59,
          3.71,
          3.57,
          3.56,
          3.47,
          3.38,
          3.38,
          3.54,
          3.61,
          3.55,
          3.54,
          3.63,
          3.76,
          3.75,
          3.64,
          3.85,
          3.65,
          3.72,
          3.73,
          3.85,
          3.8,
          3.83,
          3.47,
          3.52,
          3.4,
          3.36,
          3.09,
          3.23,
          3.13,
          3.08,
          3.18,
          3.18,
          3.08,
          2.95,
          3.0,
          3.06,
          3.05,
          3.03,
          3.45,
          3.39,
          3.38,
          3.46,
          3.69,
          3.61,
          3.59,
          3.69,
          3.59,
          3.68,
          3.64,
          3.66,
          3.41,
          3.38,
          3.33,
          3.09,
          3.04,
          3.05,
          2.95,
          2.76,
          2.79,
          2.69,
          2.71,
          2.54,
          2.55,
          2.33,
          2.32,
          2.3,
          2.4,
          2.2,
          2.36,
          2.28,
          2.36,
          2.35,
          2.36,
          2.51,
          2.57,
          2.55,
          2.57,
          2.73,
          2.68,
          2.56,
          2.5,
          2.41,
          2.51,
          2.44,
          2.36,
          2.35,
          2.3,
          2.16,
          2.2,
          2.24,
          2.22,
          2.27,
          2.63,
          2.65,
          2.88,
          2.88,
          3.08,
          3.18,
          3.29,
          3.41,
          3.55,
          3.46,
          3.46,
          3.51,
          3.43,
          3.54,
          3.41,
          2.36,
          2.51,
          2.57,
          2.55,
          2.57,
          2.73,
          2.68,
          2.56,
          2.5,
          2.41,
          2.51,
          2.44,
          2.36,
          2.35,
          2.3,
          2.16,
          2.2,
          2.24,
          2.22,
          2.27,
          2.63,
          2.65,
          2.88,
          2.88,
          3.08,
          3.18,
          3.29,
          3.41,
          3.55,
          3.46,
          3.46,
          3.51,
          3.43,
          3.54,
          3.41,
          3.38,
          3.33,
          3.2,
          3.27,
          3.3,
          3.17,
          3.14,
          3.35,
          3.55,
          3.73,
          3.74,
          3.9,
          4.12,
          4.27,
          4.49,
          4.6,
          4.64,
          4.75,
          4.75,
          4.64,
          4.74,
          4.53,
          4.36,
          4.37,
          4.19,
          4.07,
          4.03,
          3.94,
          4.07,
          4.05,
          3.98,
          4.15,
          4.34,
          4.22,
          4.26,
          4.38,
          4.37,
          4.31,
          4.13,
          4.05,
          3.91,
          3.53,
          3.55,
          3.42,
          3.41,
          3.47,
          3.67,
          3.74,
          3.89,
          3.91,
          4.09,
          4.24,
          4.18,
          4.36,
          4.32,
          4.29,
          4.24,
          4.15,
          3.98,
          3.79,
          3.63,
          3.45,
          3.34,
          3.19,
          2.99,
          3.04,
          2.93,
          3.0,
          2.98,
          2.97,
          3.1,
          2.92,
          2.92,
          3.02,
          2.94,
          3.05,
          3.14,
          3.23,
          3.21,
          3.24,
          3.31,
          3.35,
          3.21,
          3.27,
          4.47,
          4.02,
          4.12,
          3.92,
          3.84,
          3.95,
          3.72,
          3.97,
          3.71,
          3.82,
          3.63,
          3.81,
          3.8,
          3.82,
          3.83,
          3.66,
          3.73,
          3.67,
          3.77,
          3.63,
          3.66,
          3.65,
          3.61,
          3.58,
          3.43,
          3.58,
          3.65,
          3.72,
          3.69,
          3.99,
          3.77,
          4.01,
          3.86,
          3.9,
          4.19,
          3.94,
          3.96,
          3.91,
          3.76,
          3.76,
          3.68,
          3.62,
          3.55,
          3.56,
          3.37,
          3.09,
          3.29,
          2.94,
          2.94,
          3.04,
          2.8,
          2.84,
          2.86,
          3.03,
          3.3,
          3.16,
          3.46,
          3.71,
          3.77,
          3.87,
          4.09,
          4.01,
          3.91,
          3.86,
          3.88,
          3.72,
          3.59,
          3.96,
          3.98,
          4.03,
          4.01,
          3.88,
          3.94,
          3.77,
          3.54,
          3.47,
          3.3,
          3.43,
          3.16,
          2.99,
          3.01,
          2.85,
          3.02,
          2.74,
          2.57,
          2.65,
          2.55,
          2.42,
          2.37,
          2.34,
          2.25,
          2.48,
          2.36,
          2.52,
          2.45,
          2.66,
          2.67,
          2.74,
          2.89,
          2.96,
          2.95,
          3.05,
          2.91,
          3.02,
          2.76,
          2.66,
          2.66,
          2.51,
          2.25,
          2.25,
          2.05,
          1.96,
          2.06,
          2.14,
          2.42,
          2.64,
          2.92,
          3.1,
          3.26,
          3.49,
          3.77,
          3.92,
          3.96,
          2.89,
          2.96,
          2.95,
          3.05,
          2.91,
          3.02,
          2.76,
          2.66,
          2.66,
          2.51,
          2.25,
          2.25,
          2.05,
          1.96,
          2.06,
          2.14,
          2.42,
          2.64,
          2.92,
          3.1,
          3.26,
          3.49,
          3.77,
          3.92,
          3.96,
          3.85,
          3.82,
          3.75,
          3.7,
          3.72,
          3.62,
          3.59,
          3.66,
          3.52,
          3.41,
          3.2,
          3.3,
          3.36,
          3.46,
          3.6,
          3.84,
          4.08,
          4.36,
          4.72,
          5.04,
          5.27,
          5.69,
          5.73,
          6.01,
          5.95,
          5.85,
          5.72,
          5.46,
          5.06,
          4.85,
          4.5,
          4.34,
          4.3,
          4.26,
          4.28,
          4.29,
          4.59,
          4.62,
          4.83,
          5.12,
          5.42,
          5.3,
          5.5,
          5.33,
          5.11,
          4.64,
          4.08,
          3.85,
          3.62,
          3.79,
          3.65,
          3.74,
          3.8,
          3.81,
          3.65,
          3.83,
          3.87,
          3.86,
          3.73,
          4.01,
          3.85,
          3.72,
          3.65,
          3.66,
          3.56,
          3.66,
          3.45,
          3.67,
          3.63,
          3.58,
          3.85,
          3.9,
          4.0,
          3.99,
          3.96,
          4.08,
          4.2,
          4.14,
          4.22,
          3.89,
          4.07,
          3.81,
          3.75,
          3.74,
          3.7,
          3.66,
          3.42,
          3.23,
          3.04,
          3.05,
          2.78,
          2.69,
          2.65,
          2.67,
          2.71,
          2.78,
          2.97,
          2.91,
          3.19,
          3.54,
          3.57,
          3.76,
          3.96,
          4.06,
          4.15,
          4.1,
          4.04,
          4.02,
          3.79,
          3.69,
          3.42,
          3.8,
          4.36,
          4.53,
          4.8,
          4.92,
          4.88,
          5.13,
          5.09,
          5.35,
          5.34,
          5.32,
          5.35,
          5.19,
          5.05,
          4.6,
          4.1,
          3.43,
          2.96,
          2.93,
          2.93,
          3.24,
          3.36,
          3.46,
          3.41,
          3.42,
          3.33,
          3.24,
          2.88,
          2.92,
          2.88,
          3.01,
          3.31,
          3.44,
          3.72,
          3.53,
          3.71,
          3.72,
          3.44,
          3.66,
          3.94,
          4.06,
          4.43,
          4.14,
          3.77,
          4.16,
          4.0,
          3.81,
          3.76,
          3.93,
          3.72,
          3.65,
          3.6,
          3.77,
          3.76,
          3.73,
          3.96,
          3.85,
          3.97,
          3.75,
          3.84,
          3.85,
          3.85,
          3.41,
          3.64,
          3.65,
          3.64,
          3.44,
          3.49,
          3.32,
          3.53,
          3.4,
          3.54,
          3.76,
          3.73,
          3.89,
          3.92,
          4.2,
          4.14,
          4.13,
          4.34,
          4.05,
          4.02,
          3.82,
          3.81,
          3.71,
          3.48,
          3.45,
          3.32,
          3.23,
          3.1,
          2.94,
          2.84,
          2.73,
          2.6,
          2.53,
          2.58,
          2.68,
          2.77,
          3.03,
          3.21,
          3.48,
          3.82,
          3.86,
          4.25,
          3.94,
          4.1,
          4.01,
          3.95,
          3.99,
          3.74,
          3.75,
          3.75,
          3.45,
          3.31,
          3.04,
          2.94,
          2.99,
          2.9,
          3.05,
          2.86,
          2.95,
          2.78,
          2.76,
          2.55,
          2.55,
          2.29,
          2.17,
          1.87,
          2.06,
          2.2,
          2.25,
          2.68,
          2.65,
          2.84,
          2.7,
          2.78,
          2.76,
          2.85,
          2.92,
          2.96,
          3.05,
          2.89,
          2.81,
          2.58,
          2.45,
          2.18,
          2.05,
          1.81,
          1.79,
          1.62,
          1.55,
          1.87,
          2.17,
          2.61,
          3.1,
          3.51,
          3.86,
          4.11,
          4.22,
          3.9,
          3.92,
          3.66,
          3.49,
          3.59,
          3.59,
          3.45,
          3.69,
          3.63,
          3.49,
          3.22,
          3.18,
          2.96,
          2.76,
          2.81,
          3.23,
          3.6,
          4.13,
          4.47,
          4.83,
          5.45,
          5.81,
          6.36,
          6.79,
          7.14,
          6.97,
          6.58,
          6.07,
          5.69,
          5.19,
          4.9,
          4.55,
          4.32,
          4.15,
          4.06,
          4.15,
          4.24,
          4.18,
          4.54,
          5.03,
          5.67,
          6.09,
          6.52,
          6.64,
          6.14,
          5.83,
          4.85,
          4.09,
          3.19,
          3.06,
          3.14,
          3.66,
          3.96,
          4.38,
          4.6,
          4.89,
          4.97,
          5.14,
          5.18,
          5.11,
          5.1,
          5.41,
          5.46,
          5.28,
          5.34,
          5.03,
          4.29,
          3.35,
          2.61,
          2.37,
          2.67,
          2.99,
          3.37,
          3.45,
          3.45,
          3.48,
          3.45,
          3.37,
          2.79,
          2.75,
          2.99,
          2.88,
          3.14,
          3.32,
          3.39,
          3.45,
          3.69,
          3.65,
          3.51,
          3.44,
          3.35
        ],
        [
          12.363,
          12.371,
          12.38,
          12.388,
          12.397,
          12.405,
          12.414,
          12.423,
          12.431,
          12.44,
          12.449,
          12.458,
          12.467,
          12.476,
          12.485,
          12.494,
          12.503,
          12.512,
          12.521,
          12.53,
          12.54,
          12.549,
          12.558,
          12.568,
          12.577,
          12.586,
          12.596,
          12.606,
          12.615,
          12.625,
          12.634,
          12.644,
          12.654,
          12.664,
          12.673,
          12.683,
          12.693,
          12.703,
          12.713,
          12.723,
          12.733,
          12.743,
          12.753,
          12.763,
          12.774,
          12.784,
          12.794,
          12.804,
          12.815,
          12.825,
          12.835,
          12.846,
          12.856,
          12.867,
          12.877,
          12.888,
          12.898,
          12.909,
          12.919,
          12.93,
          12.941,
          12.951,
          12.962,
          12.973,
          12.703,
          12.713,
          12.723,
          12.733,
          12.743,
          12.753,
          12.763,
          12.774,
          12.784,
          12.794,
          12.804,
          12.815,
          12.825,
          12.835,
          12.846,
          12.856,
          12.867,
          12.877,
          12.888,
          12.898,
          12.909,
          12.919,
          12.93,
          12.941,
          12.951,
          12.962,
          12.973,
          12.984,
          12.994,
          13.005,
          13.016,
          13.027,
          13.038,
          13.049,
          13.06,
          13.071,
          13.082,
          13.093,
          13.104,
          13.115,
          13.126,
          13.137,
          13.148,
          13.159,
          13.17,
          13.182,
          13.193,
          13.204,
          13.215,
          13.227,
          13.238,
          13.249,
          13.261,
          13.272,
          13.283,
          13.295,
          13.306,
          13.318,
          13.329,
          13.341,
          13.352,
          13.364,
          13.375,
          13.387,
          13.398,
          13.41,
          13.421,
          13.433,
          13.445,
          13.456,
          13.468,
          13.48,
          13.491,
          13.503,
          13.506,
          13.517,
          13.529,
          13.541,
          13.553,
          13.565,
          13.577,
          13.589,
          13.6,
          13.612,
          13.624,
          13.636,
          13.648,
          13.66,
          13.672,
          13.684,
          13.696,
          13.708,
          13.72,
          13.732,
          13.744,
          13.756,
          13.768,
          13.781,
          13.793,
          13.805,
          13.817,
          13.829,
          13.841,
          13.853,
          13.865,
          13.878,
          13.89,
          13.902,
          13.914,
          13.926,
          13.939,
          13.951,
          13.963,
          12.383,
          12.393,
          12.402,
          12.412,
          12.422,
          12.431,
          12.441,
          12.451,
          12.46,
          12.47,
          12.48,
          12.49,
          12.5,
          12.51,
          12.52,
          12.53,
          12.54,
          12.55,
          12.56,
          12.57,
          12.58,
          12.59,
          12.601,
          12.611,
          12.621,
          12.631,
          12.642,
          12.652,
          12.663,
          12.673,
          12.684,
          12.694,
          12.705,
          12.715,
          12.726,
          12.736,
          12.747,
          12.758,
          12.768,
          12.779,
          12.79,
          12.801,
          12.812,
          12.822,
          12.833,
          12.844,
          12.855,
          12.866,
          12.877,
          12.888,
          12.899,
          12.91,
          12.921,
          12.932,
          12.943,
          12.954,
          12.966,
          13.508,
          13.52,
          13.532,
          13.544,
          13.556,
          13.568,
          13.58,
          13.592,
          13.604,
          13.616,
          13.628,
          13.64,
          13.652,
          13.664,
          13.677,
          13.689,
          13.701,
          13.713,
          13.725,
          13.737,
          13.75,
          13.762,
          13.774,
          13.786,
          13.799,
          13.811,
          13.823,
          13.835,
          13.848,
          13.86,
          13.872,
          13.885,
          13.897,
          13.909,
          13.922,
          13.934,
          13.947,
          13.959,
          13.971,
          12.611,
          12.621,
          12.631,
          12.642,
          12.652,
          12.663,
          12.673,
          12.684,
          12.694,
          12.705,
          12.715,
          12.726,
          12.736,
          12.747,
          12.758,
          12.768,
          12.779,
          12.79,
          12.801,
          12.812,
          12.822,
          12.833,
          12.844,
          12.855,
          12.866,
          12.877,
          12.888,
          12.899,
          12.91,
          12.921,
          12.932,
          12.943,
          12.954,
          12.966,
          12.977,
          12.988,
          12.999,
          13.01,
          13.022,
          13.033,
          13.044,
          13.056,
          13.067,
          13.078,
          13.09,
          13.101,
          13.112,
          13.124,
          13.135,
          13.147,
          13.158,
          13.17,
          13.181,
          13.193,
          13.205,
          13.216,
          13.228,
          13.239,
          13.251,
          13.263,
          13.274,
          13.286,
          13.298,
          13.309,
          13.321,
          13.333,
          13.345,
          13.357,
          13.368,
          13.38,
          13.392,
          13.404,
          13.416,
          13.428,
          13.44,
          13.451,
          13.463,
          13.475,
          13.487,
          13.499,
          11.802,
          11.808,
          11.813,
          11.819,
          11.825,
          11.83,
          11.836,
          11.842,
          11.848,
          11.854,
          11.86,
          11.867,
          11.873,
          11.879,
          11.886,
          11.892,
          11.899,
          11.906,
          11.913,
          11.919,
          11.926,
          11.933,
          11.94,
          11.948,
          11.955,
          11.962,
          11.969,
          11.977,
          11.984,
          11.992,
          11.999,
          12.007,
          12.014,
          12.022,
          12.03,
          12.038,
          12.046,
          12.054,
          12.062,
          12.07,
          12.078,
          12.086,
          12.094,
          12.102,
          12.11,
          12.119,
          12.127,
          12.135,
          12.144,
          12.152,
          12.161,
          12.169,
          12.178,
          12.187,
          12.195,
          12.204,
          12.213,
          12.222,
          12.231,
          12.239,
          12.248,
          12.257,
          12.267,
          12.276,
          12.285,
          12.294,
          12.303,
          12.313,
          12.322,
          12.331,
          12.341,
          12.35,
          12.36,
          12.369,
          11.801,
          11.807,
          11.814,
          11.82,
          11.826,
          11.832,
          11.838,
          11.845,
          11.851,
          11.858,
          11.864,
          11.871,
          11.878,
          11.885,
          11.892,
          11.899,
          11.906,
          11.913,
          11.92,
          11.928,
          11.935,
          11.942,
          11.95,
          11.957,
          11.965,
          11.972,
          11.98,
          11.988,
          11.995,
          12.003,
          12.011,
          12.019,
          12.027,
          12.035,
          12.043,
          12.051,
          12.059,
          12.067,
          12.076,
          12.084,
          12.092,
          12.101,
          12.109,
          12.117,
          12.126,
          12.135,
          12.143,
          12.152,
          12.16,
          12.169,
          12.178,
          12.187,
          12.196,
          12.204,
          12.213,
          12.222,
          12.231,
          12.241,
          12.25,
          12.259,
          12.268,
          12.277,
          12.287,
          12.296,
          12.305,
          12.315,
          12.324,
          12.334,
          12.343,
          12.353,
          12.362,
          12.382,
          12.391,
          12.401,
          12.411,
          12.421,
          12.431,
          12.441,
          12.451,
          12.461,
          12.471,
          12.481,
          12.491,
          12.501,
          12.511,
          12.521,
          12.531,
          12.541,
          12.552,
          12.562,
          12.572,
          12.583,
          12.593,
          12.603,
          12.614,
          12.624,
          12.635,
          12.645,
          12.656,
          12.667,
          12.677,
          12.688,
          12.698,
          12.709,
          12.72,
          12.731,
          12.741,
          12.752,
          12.763,
          12.774,
          12.785,
          12.796,
          12.807,
          12.817,
          12.828,
          12.839,
          12.85,
          12.861,
          12.873,
          12.884,
          12.895,
          12.906,
          12.917,
          12.928,
          12.939,
          12.951,
          12.962,
          12.973,
          12.603,
          12.614,
          12.624,
          12.635,
          12.645,
          12.656,
          12.667,
          12.677,
          12.688,
          12.698,
          12.709,
          12.72,
          12.731,
          12.741,
          12.752,
          12.763,
          12.774,
          12.785,
          12.796,
          12.807,
          12.817,
          12.828,
          12.839,
          12.85,
          12.861,
          12.873,
          12.884,
          12.895,
          12.906,
          12.917,
          12.928,
          12.939,
          12.951,
          12.962,
          12.973,
          12.984,
          12.996,
          13.007,
          13.018,
          13.03,
          13.041,
          13.052,
          13.064,
          13.075,
          13.087,
          13.098,
          13.11,
          13.121,
          13.133,
          13.144,
          13.156,
          13.167,
          13.179,
          13.191,
          13.202,
          13.214,
          13.226,
          13.237,
          13.249,
          13.261,
          13.272,
          13.284,
          13.296,
          13.308,
          13.32,
          13.331,
          13.343,
          13.355,
          13.367,
          13.379,
          13.391,
          13.403,
          13.415,
          13.426,
          13.438,
          13.45,
          13.462,
          13.474,
          13.486,
          13.498,
          13.51,
          13.522,
          13.534,
          13.547,
          13.559,
          13.571,
          13.583,
          13.595,
          13.607,
          13.619,
          13.631,
          13.644,
          13.656,
          13.668,
          13.68,
          13.692,
          13.705,
          13.717,
          13.729,
          13.741,
          13.754,
          13.766,
          13.778,
          13.79,
          13.803,
          13.815,
          13.827,
          13.84,
          13.852,
          13.865,
          13.877,
          13.889,
          13.902,
          13.914,
          13.927,
          13.939,
          13.951,
          13.964,
          13.976,
          11.817,
          11.823,
          11.83,
          11.837,
          11.844,
          11.85,
          11.857,
          11.864,
          11.872,
          11.879,
          11.886,
          11.894,
          11.901,
          11.909,
          11.916,
          11.924,
          11.931,
          11.939,
          11.947,
          11.954,
          11.962,
          11.97,
          11.978,
          11.986,
          11.994,
          12.002,
          12.011,
          12.019,
          12.027,
          12.035,
          12.044,
          12.052,
          12.061,
          12.069,
          12.078,
          12.086,
          12.095,
          12.104,
          12.112,
          12.121,
          12.13,
          12.139,
          12.148,
          12.157,
          12.166,
          12.175,
          12.184,
          12.193,
          12.202,
          12.211,
          12.221,
          12.23,
          12.239,
          12.249,
          12.258,
          12.268,
          12.277,
          12.287,
          12.296,
          12.306,
          12.316,
          12.326,
          12.335,
          12.345,
          12.355,
          12.365,
          12.375,
          12.386,
          12.396,
          12.405,
          12.415,
          12.425,
          12.435,
          12.445,
          12.455,
          12.465,
          12.475,
          12.485,
          12.495,
          12.505,
          12.515,
          12.525,
          12.535,
          12.546,
          12.556,
          12.566,
          12.576,
          12.587,
          12.597,
          12.608,
          12.618,
          12.628,
          12.639,
          12.649,
          12.66,
          12.67,
          12.681,
          12.692,
          12.702,
          12.713,
          12.724,
          12.734,
          12.745,
          12.756,
          12.766,
          12.777,
          12.788,
          12.799,
          12.81,
          12.821,
          12.832,
          12.843,
          12.853,
          12.864,
          12.875,
          12.886,
          12.898,
          12.909,
          12.92,
          12.931,
          12.942,
          12.953,
          12.964,
          12.702,
          12.713,
          12.724,
          12.734,
          12.745,
          12.756,
          12.766,
          12.777,
          12.788,
          12.799,
          12.81,
          12.821,
          12.832,
          12.843,
          12.853,
          12.864,
          12.875,
          12.886,
          12.898,
          12.909,
          12.92,
          12.931,
          12.942,
          12.953,
          12.964,
          12.975,
          12.987,
          12.998,
          13.009,
          13.02,
          13.032,
          13.043,
          13.054,
          13.066,
          13.077,
          13.088,
          13.1,
          13.111,
          13.122,
          13.134,
          13.145,
          13.157,
          13.168,
          13.18,
          13.191,
          13.203,
          13.214,
          13.226,
          13.238,
          13.249,
          13.261,
          13.273,
          13.284,
          13.296,
          13.308,
          13.319,
          13.331,
          13.343,
          13.354,
          13.366,
          13.378,
          13.39,
          13.402,
          13.413,
          13.425,
          13.437,
          13.449,
          13.461,
          13.473,
          13.485,
          13.496,
          11.825,
          11.832,
          11.839,
          11.846,
          11.854,
          11.861,
          11.869,
          11.876,
          11.884,
          11.891,
          11.899,
          11.907,
          11.914,
          11.922,
          11.93,
          11.938,
          11.946,
          11.954,
          11.962,
          11.97,
          11.978,
          11.986,
          11.995,
          12.003,
          12.011,
          12.02,
          12.028,
          12.037,
          12.045,
          12.054,
          12.062,
          12.071,
          12.08,
          12.088,
          12.097,
          12.106,
          12.115,
          12.124,
          12.133,
          12.142,
          12.151,
          12.16,
          12.169,
          12.179,
          12.188,
          12.197,
          12.206,
          12.216,
          12.225,
          12.235,
          12.244,
          12.254,
          12.263,
          12.273,
          12.283,
          12.292,
          12.302,
          12.312,
          12.322,
          12.331,
          12.341,
          12.351,
          12.361,
          12.371,
          13.49,
          13.502,
          13.514,
          13.527,
          13.539,
          13.551,
          13.564,
          13.576,
          13.588,
          13.601,
          13.613,
          13.625,
          13.638,
          13.65,
          13.663,
          13.675,
          13.688,
          13.7,
          13.712,
          13.725,
          13.737,
          13.75,
          13.762,
          13.775,
          13.787,
          13.8,
          13.813,
          13.825,
          13.838,
          13.85,
          13.863,
          13.875,
          13.888,
          13.901,
          13.913,
          13.926,
          13.939,
          13.951,
          13.964,
          11.759,
          11.766,
          11.773,
          11.779,
          11.786,
          11.793,
          11.8,
          11.807,
          11.814,
          11.821,
          11.829,
          11.836,
          11.843,
          11.851,
          11.858,
          11.866,
          11.873,
          11.881,
          11.889,
          11.896,
          11.904,
          11.912,
          11.92,
          11.928,
          11.936,
          11.944,
          11.952,
          11.96,
          11.968,
          11.976,
          11.985,
          11.993,
          12.001,
          12.01,
          12.018,
          12.027,
          12.035,
          12.044,
          12.052,
          12.061,
          12.07,
          12.078,
          12.087,
          12.096,
          12.105,
          12.114,
          12.123,
          12.132,
          12.141,
          12.15,
          12.16,
          12.169,
          12.178,
          12.187,
          12.197,
          12.206,
          12.215,
          12.225,
          12.234,
          12.244,
          12.254,
          12.263,
          12.273,
          12.283,
          12.292,
          12.302,
          12.312,
          12.322,
          12.332,
          12.342,
          12.352,
          12.362,
          12.372,
          12.372,
          12.382,
          12.392,
          12.402,
          12.412,
          12.422,
          12.432,
          12.443,
          12.453,
          12.463,
          12.474,
          12.484,
          12.495,
          12.505,
          12.515,
          12.526,
          12.537,
          12.547,
          12.558,
          12.568,
          12.579,
          12.59,
          12.6,
          12.611,
          12.622,
          12.633,
          12.644,
          12.654,
          12.665,
          12.676,
          12.687,
          12.698,
          12.709,
          12.72,
          12.731,
          12.742,
          12.753,
          12.764,
          12.776,
          12.787,
          12.798,
          12.809,
          12.82,
          12.832,
          12.843,
          12.854,
          12.865,
          12.877,
          12.888,
          12.9,
          12.911,
          12.922,
          12.934,
          12.945,
          12.957,
          12.968,
          12.98,
          12.991,
          13.003,
          13.014,
          13.026,
          13.038,
          13.049,
          13.061,
          13.073,
          13.084,
          13.096,
          13.108,
          13.12,
          13.131,
          13.143,
          13.155,
          13.167,
          13.179,
          13.191,
          13.202,
          13.214,
          13.226,
          13.238,
          13.25,
          13.262,
          13.274,
          13.286,
          13.298,
          13.31,
          13.322,
          13.334,
          13.346,
          13.358,
          13.37,
          13.383,
          13.395,
          13.407,
          13.419,
          13.431,
          13.443,
          13.456,
          13.468,
          13.48,
          13.492,
          13.505,
          13.517,
          13.529,
          13.541,
          13.554,
          13.566,
          13.578,
          13.591,
          13.603,
          13.615,
          13.628,
          13.64,
          13.653,
          13.665,
          13.677,
          13.69,
          13.702,
          13.715,
          13.727,
          13.74,
          13.752,
          13.765,
          13.777,
          13.79,
          13.803,
          13.815,
          13.828,
          13.84,
          13.853,
          13.865,
          13.878,
          13.891,
          13.903,
          13.916,
          13.929,
          13.941,
          13.954,
          13.967,
          13.979
        ]
      ]
    }
  },
  "D0352-004": {
    "reaction": {
      "0": {
        "x4_code": "(10-NE-18(A,EL)10-NE-18,,DA)",
        "0": {
          "code": [
            "10-NE-18",
            [
              "A,EL"
            ],
            "10-NE-18,,DA"
          ],
          "type": null,
          "target": "10-NE-18",
          "process": "A,EL",
          "sf49": "10-NE-18,,DA",
          "sf4": "10-NE-18",
          "sf5": null,
          "sf6": "DA",
          "sf7": null,
          "sf8": null,
          "sf9": null
        },
        "type": null,
        "free_text": ""
      }
    },
    "extra_information": {
      "detector": {
        "0": [
          {
            "x4_code": "(SI)",
            "free_txt": [
              " The single silicon detector with thickness of",
              "about 1 mm and active area of 2 cm."
            ]
          }
        ]
      },
      "err-analys": {
        "0": [
          {
            "x4_code": "(ERR-S)",
            "free_txt": [
              " Statistical error"
            ]
          }
        ]
      },
      "facility": {
        "0": [
          {
            "x4_code": "(CYCLO,2BLGLEU)",
            "free_txt": [
              " Centre de Recherches du Cyclotron (CRC)",
              "at Louvain-la-Neuve, Belgium.",
              "A postaccelerated radioactive 18Ne beam having an",
              "energy of 53 MeV and an average intensity of 5*10E5",
              "particles per second was used."
            ]
          }
        ]
      },
      "misc-col": {
        "0": [
          {
            "x4_code": "(MISC)",
            "free_txt": [
              " 22Mg Excitation energy"
            ]
          }
        ]
      }
    },
    "common": {
      "heads": [
        "ANG-CM"
      ],
      "units": [
        "ADEG"
      ],
      "data": [
        [
          180.0
        ]
      ]
    },
    "data": {
      "heads": [
        "EN",
        "DATA",
        "ERR-S",
        "MISC"
      ],
      "units": [
        "MEV",
        "MB/SR",
        "MB/SR",
        "MEV"
      ],
      "data": [
        [
          2.341,
          2.354,
          2.368,
          2.382,
          2.396,
          2.41,
          2.424,
          2.438,
          2.452,
          2.466,
          2.48,
          2.494,
          2.508,
          2.522,
          2.537,
          2.551,
          2.566,
          2.58,
          2.595,
          2.609,
          2.624,
          2.638,
          2.653,
          2.668,
          2.682,
          2.697,
          2.712,
          2.727,
          2.742,
          2.757,
          2.772,
          2.787,
          2.802,
          2.817,
          2.832,
          2.847,
          2.862,
          2.878,
          2.893,
          2.908,
          2.924,
          2.939,
          2.954,
          2.97,
          2.985,
          3.001,
          3.016,
          3.032,
          3.047,
          3.063,
          3.078,
          3.094,
          3.11,
          3.125,
          3.141,
          3.157,
          3.173,
          3.188,
          3.204,
          3.22,
          3.236,
          3.252,
          3.268,
          3.284,
          3.299,
          3.315,
          3.331,
          3.347,
          3.363,
          3.38,
          3.396,
          3.412,
          3.428,
          3.444,
          3.46,
          3.476,
          3.493,
          3.509,
          3.525,
          3.541,
          3.558,
          3.574,
          3.59,
          3.607,
          3.623,
          3.639,
          3.656,
          3.672,
          3.688,
          3.705,
          3.721,
          3.738,
          3.754,
          3.771,
          3.787,
          3.804,
          3.82,
          3.837,
          3.853,
          3.87,
          3.887,
          3.903,
          3.92,
          3.936,
          3.953,
          3.97,
          3.986,
          4.003,
          4.02,
          4.036,
          4.053,
          4.07,
          4.087,
          4.103,
          4.12,
          4.137,
          4.154,
          4.171,
          4.187,
          4.204,
          4.221,
          4.238,
          4.255,
          4.271,
          4.288,
          4.305,
          4.322,
          4.339,
          4.356,
          4.373,
          4.39,
          4.407,
          4.424,
          4.441,
          4.458,
          4.492,
          4.509,
          4.526,
          4.543,
          4.56,
          4.577,
          4.594,
          4.611,
          4.628,
          4.645,
          4.662,
          4.68,
          4.697,
          4.714,
          4.731,
          4.748,
          4.765,
          4.782,
          4.8,
          4.817,
          4.834,
          4.851,
          4.868,
          4.886,
          4.903,
          4.92,
          4.937,
          4.954,
          4.972,
          4.989,
          5.006,
          5.023,
          5.041,
          5.058,
          5.075,
          5.093,
          5.11,
          5.127,
          5.144,
          5.162,
          5.179,
          5.196,
          5.214,
          5.231,
          5.248,
          5.266,
          5.283,
          5.3,
          5.318,
          5.335,
          5.353,
          5.37,
          5.387,
          5.405,
          5.422,
          5.44,
          5.457,
          5.474,
          5.492,
          5.509,
          5.527,
          5.544,
          5.562,
          5.579,
          5.596,
          5.614,
          5.631,
          5.649,
          5.666,
          5.684,
          5.701,
          5.719,
          5.736,
          5.754,
          5.771,
          5.789,
          5.806,
          5.824,
          5.841,
          5.859,
          5.876,
          5.894,
          5.911,
          5.929,
          5.946,
          5.964,
          5.981,
          5.999,
          6.017,
          6.034,
          6.052,
          6.069,
          6.087,
          6.104,
          6.122,
          6.14,
          6.157,
          6.175,
          6.193,
          6.21,
          6.228,
          6.245,
          6.263,
          6.281,
          6.298,
          6.316,
          6.334,
          6.351,
          6.369,
          6.387,
          6.404,
          6.422,
          6.44,
          6.457,
          6.475,
          6.492,
          6.51,
          6.528,
          6.546,
          6.563,
          6.581,
          6.599,
          6.616,
          6.634,
          6.652,
          6.669,
          6.687,
          6.705,
          6.723,
          6.74,
          6.758,
          6.776,
          6.794,
          6.811,
          6.829,
          6.847,
          6.864,
          6.882,
          6.9,
          6.918
        ],
        [
          117.8,
          106.1,
          140.5,
          129.1,
          160.6,
          131.8,
          123.0,
          151.4,
          88.49,
          131.3,
          128.3,
          99.64,
          162.1,
          113.6,
          127.7,
          124.9,
          116.3,
          133.3,
          113.4,
          124.6,
          124.5,
          39.62,
          90.64,
          87.88,
          152.8,
          118.8,
          96.1,
          104.5,
          113.2,
          82.07,
          147.1,
          79.21,
          99.02,
          110.4,
          33.97,
          113.1,
          118.9,
          113.3,
          56.67,
          85.02,
          90.68,
          76.45,
          73.66,
          90.74,
          62.41,
          73.81,
          79.53,
          71.05,
          71.1,
          65.41,
          73.93,
          82.49,
          76.88,
          79.83,
          79.84,
          57.07,
          71.36,
          105.7,
          65.79,
          97.34,
          63.0,
          42.95,
          57.3,
          57.38,
          57.4,
          83.24,
          45.93,
          66.13,
          63.4,
          43.26,
          72.16,
          63.59,
          57.82,
          63.62,
          34.74,
          58.0,
          58.01,
          46.42,
          58.13,
          23.3,
          37.9,
          35.03,
          49.63,
          40.91,
          40.97,
          32.23,
          46.91,
          35.21,
          47.07,
          35.33,
          26.53,
          23.6,
          11.82,
          32.59,
          29.7,
          29.63,
          20.82,
          38.68,
          38.79,
          47.74,
          38.82,
          59.89,
          59.88,
          60.11,
          57.0,
          54.21,
          45.22,
          48.37,
          48.47,
          48.48,
          60.7,
          45.61,
          48.75,
          51.77,
          51.82,
          67.22,
          58.12,
          58.15,
          55.12,
          45.98,
          40.0,
          52.28,
          64.71,
          61.54,
          52.58,
          61.83,
          52.61,
          49.55,
          37.25,
          62.19,
          37.29,
          18.66,
          21.83,
          21.86,
          6.259,
          15.68,
          28.27,
          9.433,
          37.77,
          37.8,
          37.91,
          37.94,
          31.66,
          31.7,
          69.83,
          50.95,
          47.7,
          35.11,
          54.2,
          70.28,
          41.59,
          48.15,
          61.0,
          54.64,
          35.53,
          61.27,
          38.83,
          45.25,
          32.42,
          26.0,
          45.5,
          48.85,
          52.26,
          39.19,
          36.0,
          32.72,
          16.39,
          19.73,
          42.77,
          32.96,
          19.82,
          13.23,
          16.54,
          19.87,
          33.17,
          66.53,
          53.28,
          69.99,
          83.67,
          66.91,
          46.92,
          63.69,
          94.0,
          97.67,
          97.67,
          101.3,
          77.84,
          71.15,
          71.25,
          88.21,
          68.03,
          40.93,
          54.59,
          54.7,
          37.59,
          41.15,
          48.2,
          24.11,
          51.73,
          51.79,
          31.2,
          45.1,
          51.97,
          45.27,
          24.39,
          20.91,
          3.501,
          17.53,
          35.03,
          24.6,
          10.56,
          21.13,
          24.74,
          38.94,
          24.81,
          35.45,
          21.37,
          32.0,
          42.79,
          25.06,
          28.59,
          14.35,
          46.77,
          17.99,
          25.23,
          14.45,
          25.3,
          21.69,
          21.76,
          25.47,
          14.56,
          29.14,
          43.8,
          29.31,
          29.33,
          29.37,
          18.4,
          51.51,
          33.21,
          33.32,
          25.9,
          48.27,
          11.17,
          44.64,
          33.59,
          41.2,
          48.56,
          52.57,
          22.63,
          37.59,
          18.89,
          30.25,
          30.26,
          41.83,
          26.62,
          30.44,
          45.9,
          26.75,
          49.7,
          42.31,
          38.37,
          53.94,
          61.99,
          84.82,
          27.13,
          38.81,
          34.97,
          27.29,
          46.83,
          66.46,
          74.54,
          70.63,
          98.23,
          102.6,
          86.73
        ],
        [
          18.39,
          17.45,
          20.07,
          19.25,
          21.46,
          19.43,
          18.76,
          20.79,
          15.89,
          19.36,
          19.12,
          16.84,
          21.47,
          17.96,
          19.04,
          18.82,
          18.17,
          19.45,
          17.92,
          18.78,
          18.77,
          10.59,
          16.02,
          15.78,
          20.79,
          18.33,
          16.48,
          17.19,
          17.9,
          15.24,
          20.4,
          14.97,
          16.74,
          17.68,
          9.806,
          17.89,
          18.35,
          17.91,
          12.67,
          15.52,
          16.03,
          14.71,
          14.45,
          16.04,
          13.31,
          14.47,
          15.03,
          14.21,
          14.22,
          13.64,
          14.5,
          15.32,
          14.8,
          15.09,
          15.09,
          12.76,
          14.27,
          17.37,
          13.72,
          16.69,
          13.43,
          11.09,
          12.81,
          12.83,
          12.84,
          15.46,
          11.48,
          13.79,
          13.52,
          11.17,
          14.43,
          13.56,
          12.93,
          13.56,
          10.03,
          12.97,
          12.97,
          11.61,
          13.0,
          8.236,
          10.51,
          10.11,
          12.04,
          10.93,
          10.95,
          9.717,
          11.73,
          10.17,
          11.77,
          10.2,
          8.843,
          8.343,
          5.908,
          9.827,
          9.391,
          9.371,
          7.871,
          10.73,
          10.76,
          11.93,
          10.77,
          13.39,
          13.39,
          13.44,
          13.08,
          12.78,
          11.68,
          12.09,
          12.12,
          12.12,
          13.57,
          11.78,
          12.19,
          12.56,
          12.57,
          14.33,
          13.33,
          13.34,
          12.99,
          11.87,
          11.09,
          12.68,
          14.12,
          13.76,
          12.75,
          13.83,
          12.76,
          12.39,
          10.75,
          13.9,
          10.76,
          7.619,
          8.251,
          8.264,
          4.426,
          7.013,
          9.422,
          5.446,
          10.9,
          10.91,
          10.94,
          10.95,
          10.01,
          10.02,
          14.89,
          12.74,
          12.32,
          10.59,
          13.15,
          14.98,
          11.54,
          12.43,
          13.99,
          13.25,
          10.71,
          14.06,
          11.21,
          12.09,
          10.25,
          9.191,
          12.16,
          12.61,
          13.07,
          11.31,
          10.85,
          10.35,
          7.331,
          8.053,
          11.86,
          10.42,
          8.089,
          6.614,
          7.398,
          8.112,
          10.49,
          14.88,
          13.32,
          15.27,
          16.73,
          14.96,
          12.54,
          14.61,
          17.76,
          18.14,
          18.14,
          18.5,
          16.23,
          15.53,
          15.55,
          17.3,
          15.21,
          11.82,
          13.65,
          13.67,
          11.33,
          11.88,
          12.88,
          9.113,
          13.36,
          13.37,
          10.4,
          12.51,
          13.42,
          12.56,
          9.219,
          8.537,
          3.501,
          7.839,
          11.08,
          9.3,
          6.098,
          8.628,
          9.349,
          11.74,
          9.378,
          11.21,
          8.726,
          10.67,
          12.35,
          9.471,
          10.11,
          7.176,
          12.97,
          8.045,
          9.536,
          7.227,
          9.564,
          8.857,
          8.885,
          9.626,
          7.281,
          10.3,
          12.64,
          10.36,
          10.37,
          10.39,
          8.229,
          13.77,
          11.07,
          11.11,
          9.788,
          13.39,
          6.449,
          12.89,
          11.2,
          12.42,
          13.47,
          14.05,
          9.237,
          11.89,
          8.447,
          10.7,
          10.7,
          12.61,
          10.06,
          10.76,
          13.25,
          10.11,
          13.78,
          12.76,
          12.13,
          14.42,
          15.5,
          18.08,
          10.25,
          12.27,
          11.66,
          10.32,
          13.52,
          16.12,
          17.1,
          16.65,
          19.65,
          20.13,
          18.49
        ],
        [
          10.043,
          10.054,
          10.065,
          10.077,
          10.088,
          10.099,
          10.111,
          10.122,
          10.134,
          10.145,
          10.157,
          10.168,
          10.18,
          10.191,
          10.203,
          10.215,
          10.227,
          10.239,
          10.25,
          10.262,
          10.274,
          10.286,
          10.298,
          10.31,
          10.322,
          10.335,
          10.347,
          10.359,
          10.371,
          10.383,
          10.396,
          10.408,
          10.42,
          10.432,
          10.445,
          10.457,
          10.47,
          10.482,
          10.495,
          10.507,
          10.52,
          10.532,
          10.545,
          10.557,
          10.57,
          10.583,
          10.595,
          10.608,
          10.621,
          10.634,
          10.646,
          10.659,
          10.672,
          10.685,
          10.698,
          10.71,
          10.723,
          10.736,
          10.749,
          10.762,
          10.775,
          10.788,
          10.801,
          10.814,
          10.827,
          10.84,
          10.853,
          10.866,
          10.88,
          10.893,
          10.906,
          10.919,
          10.932,
          10.946,
          10.959,
          10.972,
          10.985,
          10.998,
          11.012,
          11.025,
          11.038,
          11.052,
          11.065,
          11.078,
          11.092,
          11.105,
          11.119,
          11.132,
          11.146,
          11.159,
          11.172,
          11.186,
          11.199,
          11.213,
          11.226,
          11.24,
          11.253,
          11.267,
          11.281,
          11.294,
          11.308,
          11.321,
          11.335,
          11.348,
          11.362,
          11.376,
          11.389,
          11.403,
          11.417,
          11.43,
          11.444,
          11.458,
          11.471,
          11.485,
          11.499,
          11.512,
          11.526,
          11.54,
          11.554,
          11.567,
          11.581,
          11.595,
          11.609,
          11.623,
          11.636,
          11.65,
          11.664,
          11.678,
          11.692,
          11.705,
          11.719,
          11.733,
          11.747,
          11.761,
          11.775,
          11.803,
          11.817,
          11.831,
          11.845,
          11.858,
          11.873,
          11.887,
          11.9,
          11.914,
          11.928,
          11.942,
          11.956,
          11.97,
          11.984,
          11.998,
          12.012,
          12.026,
          12.04,
          12.055,
          12.069,
          12.083,
          12.097,
          12.111,
          12.125,
          12.139,
          12.153,
          12.167,
          12.181,
          12.195,
          12.21,
          12.224,
          12.238,
          12.252,
          12.266,
          12.28,
          12.294,
          12.308,
          12.323,
          12.337,
          12.351,
          12.365,
          12.379,
          12.393,
          12.408,
          12.422,
          12.436,
          12.45,
          12.464,
          12.479,
          12.493,
          12.507,
          12.521,
          12.535,
          12.55,
          12.564,
          12.578,
          12.592,
          12.607,
          12.621,
          12.635,
          12.65,
          12.664,
          12.678,
          12.692,
          12.707,
          12.721,
          12.735,
          12.749,
          12.764,
          12.778,
          12.792,
          12.807,
          12.821,
          12.835,
          12.85,
          12.864,
          12.878,
          12.892,
          12.907,
          12.921,
          12.936,
          12.95,
          12.964,
          12.979,
          12.993,
          13.007,
          13.022,
          13.036,
          13.05,
          13.065,
          13.079,
          13.093,
          13.108,
          13.122,
          13.137,
          13.151,
          13.165,
          13.18,
          13.194,
          13.209,
          13.223,
          13.238,
          13.252,
          13.266,
          13.281,
          13.295,
          13.31,
          13.324,
          13.339,
          13.353,
          13.367,
          13.382,
          13.396,
          13.411,
          13.425,
          13.44,
          13.454,
          13.469,
          13.483,
          13.498,
          13.512,
          13.527,
          13.541,
          13.556,
          13.57,
          13.585,
          13.599,
          13.613,
          13.628,
          13.642,
          13.657,
          13.672,
          13.686,
          13.7,
          13.715,
          13.729,
          13.744,
          13.759,
          13.773,
          13.788
        ]
      ]
    }
  },
  "D0352-005": {
    "reaction": {
      "1": {
        "x4_code": "(8-O-18(A,0),,EN)",
        "0": {
          "code": [
            "8-O-18",
            [
              "A,0"
            ],
            ",,EN"
          ],
          "type": null,
          "target": "8-O-18",
          "process": "A,0",
          "sf49": ",,EN",
          "sf4": null,
          "sf5": null,
          "sf6": "EN",
          "sf7": null,
          "sf8": null,
          "sf9": null
        },
        "type": null,
        "free_text": ""
      },
      "2": {
        "x4_code": "(8-O-18(A,TOT),,WID)",
        "0": {
          "code": [
            "8-O-18",
            [
              "A,TOT"
            ],
            ",,WID"
          ],
          "type": null,
          "target": "8-O-18",
          "process": "A,TOT",
          "sf49": ",,WID",
          "sf4": null,
          "sf5": null,
          "sf6": "WID",
          "sf7": null,
          "sf8": null,
          "sf9": null
        },
        "type": null,
        "free_text": ""
      },
      "3": {
        "x4_code": "((8-O-18(A,EL),,WID)/(8-O-18(A,TOT),,WID))",
        "0": {
          "code": [
            "8-O-18",
            [
              "A,EL"
            ],
            ",,WID"
          ],
          "type": null,
          "target": "8-O-18",
          "process": "A,EL",
          "sf49": ",,WID",
          "sf4": null,
          "sf5": null,
          "sf6": "WID",
          "sf7": null,
          "sf8": null,
          "sf9": null
        },
        "1": {
          "code": [
            "8-O-18",
            [
              "A,TOT"
            ],
            ",,WID"
          ],
          "type": null,
          "target": "8-O-18",
          "process": "A,TOT",
          "sf49": ",,WID",
          "sf4": null,
          "sf5": null,
          "sf6": "WID",
          "sf7": null,
          "sf8": null,
          "sf9": null
        },
        "type": "/",
        "free_text": ""
      },
      "4": {
        "x4_code": "(8-O-18(A,0),,J)",
        "0": {
          "code": [
            "8-O-18",
            [
              "A,0"
            ],
            ",,J"
          ],
          "type": null,
          "target": "8-O-18",
          "process": "A,0",
          "sf49": ",,J",
          "sf4": null,
          "sf5": null,
          "sf6": "J",
          "sf7": null,
          "sf8": null,
          "sf9": null
        },
        "type": null,
        "free_text": ""
      },
      "5": {
        "x4_code": "(8-O-18(A,0),,PTY)",
        "0": {
          "code": [
            "8-O-18",
            [
              "A,0"
            ],
            ",,PTY"
          ],
          "type": null,
          "target": "8-O-18",
          "process": "A,0",
          "sf49": ",,PTY",
          "sf4": null,
          "sf5": null,
          "sf6": "PTY",
          "sf7": null,
          "sf8": null,
          "sf9": null
        },
        "type": null,
        "free_text": ""
      }
    },
    "extra_information": {},
    "common": null,
    "data": {
      "heads": [
        "DATA      1",
        "DATA      2",
        "DATA      3",
        "DATA      4",
        "DATA      5"
      ],
      "units": [
        "MEV",
        "KEV",
        "NO-DIM",
        "NO-DIM",
        "NO-DIM"
      ],
      "data": [
        [
          2.702,
          2.88,
          3.157,
          3.192,
          3.326,
          3.553,
          3.594,
          3.694,
          3.816,
          3.845,
          3.928
        ],
        [
          10.0,
          68.0,
          76.0,
          51.0,
          99.0,
          105.0,
          124.0,
          15.0,
          50.0,
          170.0,
          39.0
        ],
        [
          0.56,
          0.66,
          1.0,
          0.1,
          0.06,
          0.35,
          0.04,
          0.06,
          0.12,
          0.53,
          0.09
        ],
        [
          1.0,
          0.0,
          0.0,
          1.0,
          2.0,
          1.0,
          2.0,
          3.0,
          2.0,
          1.0,
          3.0
        ],
        [
          -1.0,
          1.0,
          1.0,
          -1.0,
          1.0,
          -1.0,
          1.0,
          -1.0,
          1.0,
          -1.0,
          -1.0
        ]
      ]
    }
  }
}