{
  "entry": "12333",
  "last_updated": "2006-07-20",
  "number_of_revisions": "3",
  "histories": [
    {
      "x4_code": "(760804T)",
      "free_txt": [
        " TRANSLATED FROM SCISRS"
      ]
    },
    {
      "x4_code": "(841005A)",
      "free_txt": [
        " CONVERTED TO REACTION FORMALISM"
      ]
    }
  ],
  "bib_record": {
    "title": "MEASUREMENT OF THE NEUTRON TOTAL CROSS SECTION OF U233 FROM 0.07 TO 10,000 EV.",
    "authors": [
      {
        "name": "N.J.Pattenden"
      },
      {
        "name": "J.A.Harvey"
      }
    ],
    "institutes": [
      {
        "x4_code": "(1USAORL)",
        "free_txt": []
      }
    ],
    "references": {
      "0": [
        {
          "x4_code": "(J,NSE,17,404,63)",
          "free_txt": [],
          "publication_year": "1963"
        },
        {
          "x4_code": "(R,ORNL-TM-556,6304)",
          "free_txt": [
            " TABULATED DATA"
          ],
          "publication_year": "1963"
        }
      ]
    },
    "facilities": {
      "0": [
        {
          "x4_code": "(CHOPF)",
          "free_txt": [
            " FAST CHOPPER"
          ]
        }
      ]
    }
  },
  "data_tables": {
    "001": {
      "extra_information": {
        "facility": {
          "0": [
            {
              "x4_code": "(CHOPF)",
              "free_txt": [
                " FAST CHOPPER"
              ]
            }
          ]
        },
        "status": {
          "0": [
            {
              "x4_code": "(SCSRS)",
              "free_txt": []
            }
          ]
        }
      }
    },
    "002": {
      "reaction": {
        "0": {
          "x4_code": "(92-U-233(N,TOT),,SIG)",
          "0": {
            "code": [
              "92-U-233",
              [
                "N,TOT"
              ],
              ",,SIG"
            ],
            "type": null,
            "target": "92-U-233",
            "process": "N,TOT",
            "sf49": ",,SIG",
            "sf4": null,
            "sf5": null,
            "sf6": "SIG",
            "sf7": null,
            "sf8": null,
            "sf9": null
          },
          "type": null,
          "free_text": ""
        }
      },
      "extra_information": {
        "err-analys": {
          "0": [
            {
              "x4_code": null,
              "free_txt": [
                "ERRORS ON THE TOTAL CROSS SECTION ARE ESTIMATED TO BE-",
                "           +-0.6-1.1 PERCENT BELOW 1 EV,",
                "             1.1-2.5 PERCENT FROM 1-100 EV,",
                "             1.5-5.5 PERCENT ABOVE 100 EV."
              ]
            }
          ]
        },
        "method": {
          "0": [
            {
              "x4_code": "(TOF)",
              "free_txt": [
                "      TIME-OF-FLIGHT"
              ]
            }
          ]
        }
      },
      "common": null,
      "data": {
        "heads": [
          "EN",
          "DATA"
        ],
        "units": [
          "MEV",
          "B"
        ],
        "data": [
          [
            7.23e-08,
            7.38e-08,
            7.53e-08,
            7.69e-08,
            7.85e-08,
            8.02e-08,
            8.19e-08,
            8.37e-08,
            8.55e-08,
            8.74e-08,
            8.93e-08,
            9.14e-08,
            9.35e-08,
            9.56e-08,
            9.79e-08,
            1.002e-07,
            1.026e-07,
            1.051e-07,
            1.077e-07,
            1.103e-07,
            1.131e-07,
            1.16e-07,
            1.19e-07,
            1.221e-07,
            1.254e-07,
            1.287e-07,
            1.322e-07,
            1.359e-07,
            1.397e-07,
            1.437e-07,
            1.478e-07,
            1.521e-07,
            1.567e-07,
            1.614e-07,
            1.663e-07,
            1.715e-07,
            1.769e-07,
            1.826e-07,
            1.885e-07,
            1.948e-07,
            2.013e-07,
            2.082e-07,
            2.155e-07,
            2.231e-07,
            2.312e-07,
            2.397e-07,
            2.487e-07,
            2.522e-07,
            2.566e-07,
            2.582e-07,
            2.612e-07,
            2.659e-07,
            2.682e-07,
            2.707e-07,
            2.757e-07,
            2.808e-07,
            2.86e-07,
            2.914e-07,
            2.969e-07,
            3.026e-07,
            3.085e-07,
            3.145e-07,
            3.207e-07,
            3.271e-07,
            3.337e-07,
            3.405e-07,
            3.465e-07,
            3.537e-07,
            3.611e-07,
            3.688e-07,
            3.767e-07,
            3.848e-07,
            3.933e-07,
            4.02e-07,
            4.11e-07,
            4.203e-07,
            4.299e-07,
            4.399e-07,
            4.502e-07,
            4.608e-07,
            4.719e-07,
            4.833e-07,
            4.952e-07,
            5.093e-07,
            5.222e-07,
            5.356e-07,
            5.494e-07,
            5.638e-07,
            5.788e-07,
            5.944e-07,
            6.107e-07,
            6.276e-07,
            6.452e-07,
            6.636e-07,
            6.76e-07,
            6.828e-07,
            6.88e-07,
            7.01e-07,
            7.028e-07,
            7.14e-07,
            7.28e-07,
            7.42e-07,
            7.56e-07,
            7.71e-07,
            7.86e-07,
            8.01e-07,
            8.17e-07,
            8.34e-07,
            8.51e-07,
            8.69e-07,
            8.87e-07,
            9.05e-07,
            9.25e-07,
            9.45e-07,
            9.65e-07,
            9.87e-07,
            1.008e-06,
            1.031e-06,
            1.055e-06,
            1.079e-06,
            1.104e-06,
            1.13e-06,
            1.157e-06,
            1.185e-06,
            1.204e-06,
            1.214e-06,
            1.224e-06,
            1.234e-06,
            1.244e-06,
            1.254e-06,
            1.265e-06,
            1.275e-06,
            1.286e-06,
            1.308e-06,
            1.319e-06,
            1.33e-06,
            1.341e-06,
            1.353e-06,
            1.365e-06,
            1.376e-06,
            1.388e-06,
            1.4e-06,
            1.413e-06,
            1.425e-06,
            1.438e-06,
            1.45e-06,
            1.463e-06,
            1.476e-06,
            1.49e-06,
            1.503e-06,
            1.517e-06,
            1.531e-06,
            1.537e-06,
            1.545e-06,
            1.561e-06,
            1.585e-06,
            1.61e-06,
            1.635e-06,
            1.661e-06,
            1.688e-06,
            1.715e-06,
            1.743e-06,
            1.771e-06,
            1.8e-06,
            1.83e-06,
            1.861e-06,
            1.893e-06,
            1.925e-06,
            1.958e-06,
            1.976e-06,
            1.992e-06,
            1.996e-06,
            2.017e-06,
            2.038e-06,
            2.06e-06,
            2.082e-06,
            2.104e-06,
            2.127e-06,
            2.15e-06,
            2.161e-06,
            2.173e-06,
            2.184e-06,
            2.194e-06,
            2.208e-06,
            2.224e-06,
            2.233e-06,
            2.241e-06,
            2.249e-06,
            2.257e-06,
            2.266e-06,
            2.274e-06,
            2.282e-06,
            2.291e-06,
            2.299e-06,
            2.308e-06,
            2.317e-06,
            2.325e-06,
            2.334e-06,
            2.343e-06,
            2.352e-06,
            2.36e-06,
            2.366e-06,
            2.369e-06,
            2.378e-06,
            2.387e-06,
            2.393e-06,
            2.396e-06,
            2.406e-06,
            2.42e-06,
            2.448e-06,
            2.477e-06,
            2.506e-06,
            2.522e-06,
            2.535e-06,
            2.537e-06,
            2.551e-06,
            2.565e-06,
            2.566e-06,
            2.582e-06,
            2.597e-06,
            2.612e-06,
            2.628e-06,
            2.644e-06,
            2.659e-06,
            2.675e-06,
            2.692e-06,
            2.708e-06,
            2.712e-06,
            2.724e-06,
            2.729e-06,
            2.741e-06,
            2.745e-06,
            2.762e-06,
            2.779e-06,
            2.796e-06,
            2.813e-06,
            2.83e-06,
            2.848e-06,
            2.865e-06,
            2.883e-06,
            2.901e-06,
            2.919e-06,
            2.937e-06,
            2.956e-06,
            2.974e-06,
            2.993e-06,
            3.012e-06,
            3.031e-06,
            3.051e-06,
            3.07e-06,
            3.09e-06,
            3.11e-06,
            3.13e-06,
            3.15e-06,
            3.171e-06,
            3.191e-06,
            3.212e-06,
            3.233e-06,
            3.255e-06,
            3.267e-06,
            3.276e-06,
            3.278e-06,
            3.289e-06,
            3.298e-06,
            3.3e-06,
            3.311e-06,
            3.322e-06,
            3.333e-06,
            3.345e-06,
            3.356e-06,
            3.367e-06,
            3.379e-06,
            3.39e-06,
            3.402e-06,
            3.413e-06,
            3.425e-06,
            3.436e-06,
            3.448e-06,
            3.46e-06,
            3.472e-06,
            3.484e-06,
            3.495e-06,
            3.508e-06,
            3.52e-06,
            3.532e-06,
            3.544e-06,
            3.556e-06,
            3.569e-06,
            3.581e-06,
            3.593e-06,
            3.606e-06,
            3.619e-06,
            3.631e-06,
            3.644e-06,
            3.657e-06,
            3.67e-06,
            3.683e-06,
            3.696e-06,
            3.709e-06,
            3.722e-06,
            3.735e-06,
            3.748e-06,
            3.762e-06,
            3.775e-06,
            3.788e-06,
            3.802e-06,
            3.816e-06,
            3.829e-06,
            3.841e-06,
            3.843e-06,
            3.855e-06,
            3.857e-06,
            3.869e-06,
            3.871e-06,
            3.883e-06,
            3.897e-06,
            3.911e-06,
            3.925e-06,
            3.939e-06,
            3.953e-06,
            3.968e-06,
            3.982e-06,
            3.997e-06,
            4.019e-06,
            4.048e-06,
            4.079e-06,
            4.113e-06,
            4.139e-06,
            4.17e-06,
            4.2e-06,
            4.233e-06,
            4.265e-06,
            4.297e-06,
            4.33e-06,
            4.363e-06,
            4.396e-06,
            4.438e-06,
            4.473e-06,
            4.49e-06,
            4.507e-06,
            4.525e-06,
            4.542e-06,
            4.56e-06,
            4.578e-06,
            4.596e-06,
            4.743e-06,
            4.762e-06,
            4.781e-06,
            4.8e-06,
            4.819e-06,
            4.839e-06,
            4.858e-06,
            4.878e-06,
            4.897e-06,
            4.917e-06,
            4.937e-06,
            4.957e-06,
            4.977e-06,
            4.998e-06,
            5.018e-06,
            5.039e-06,
            5.059e-06,
            5.08e-06,
            5.094e-06,
            5.115e-06,
            5.136e-06,
            5.158e-06,
            5.179e-06,
            5.201e-06,
            5.222e-06,
            5.244e-06,
            5.266e-06,
            5.288e-06,
            5.311e-06,
            5.333e-06,
            5.356e-06,
            5.378e-06,
            5.401e-06,
            5.424e-06,
            5.447e-06,
            5.47e-06,
            5.494e-06,
            5.5e-06,
            5.517e-06,
            5.541e-06,
            5.565e-06,
            5.589e-06,
            5.613e-06,
            5.637e-06,
            5.662e-06,
            5.687e-06,
            5.711e-06,
            5.736e-06,
            5.761e-06,
            5.787e-06,
            5.812e-06,
            5.838e-06,
            5.864e-06,
            5.89e-06,
            5.916e-06,
            5.942e-06,
            6.159e-06,
            6.187e-06,
            6.215e-06,
            6.244e-06,
            6.272e-06,
            6.301e-06,
            6.33e-06,
            6.356e-06,
            6.359e-06,
            6.385e-06,
            6.415e-06,
            6.445e-06,
            6.475e-06,
            6.505e-06,
            6.536e-06,
            6.567e-06,
            6.598e-06,
            6.629e-06,
            6.63e-06,
            6.64e-06,
            6.651e-06,
            6.661e-06,
            6.665e-06,
            6.672e-06,
            6.683e-06,
            6.693e-06,
            6.704e-06,
            6.714e-06,
            6.725e-06,
            6.736e-06,
            6.746e-06,
            6.757e-06,
            6.768e-06,
            6.779e-06,
            6.789e-06,
            6.8e-06,
            6.811e-06,
            6.822e-06,
            6.833e-06,
            6.844e-06,
            6.855e-06,
            6.866e-06,
            6.877e-06,
            6.888e-06,
            6.898e-06,
            6.899e-06,
            6.909e-06,
            6.91e-06,
            6.92e-06,
            6.921e-06,
            6.931e-06,
            6.942e-06,
            6.953e-06,
            6.965e-06,
            6.976e-06,
            6.987e-06,
            6.999e-06,
            7.01e-06,
            7.021e-06,
            7.033e-06,
            7.044e-06,
            7.056e-06,
            7.067e-06,
            7.079e-06,
            7.09e-06,
            7.102e-06,
            7.113e-06,
            7.125e-06,
            7.135e-06,
            7.17e-06,
            7.205e-06,
            7.241e-06,
            7.276e-06,
            7.312e-06,
            7.349e-06,
            7.385e-06,
            7.422e-06,
            7.459e-06,
            7.496e-06,
            7.534e-06,
            7.572e-06,
            7.61e-06,
            7.648e-06,
            7.687e-06,
            7.726e-06,
            7.765e-06,
            7.805e-06,
            7.845e-06,
            7.885e-06,
            7.925e-06,
            7.966e-06,
            8.007e-06,
            8.049e-06,
            8.091e-06,
            8.133e-06,
            8.175e-06,
            8.218e-06,
            8.261e-06,
            8.305e-06,
            8.349e-06,
            8.393e-06,
            8.437e-06,
            8.482e-06,
            8.527e-06,
            8.573e-06,
            8.619e-06,
            8.665e-06,
            8.712e-06,
            8.759e-06,
            8.807e-06,
            8.854e-06,
            8.903e-06,
            8.951e-06,
            9e-06,
            9.05e-06,
            9.1e-06,
            9.15e-06,
            9.201e-06,
            9.252e-06,
            9.303e-06,
            9.355e-06,
            9.408e-06,
            9.46e-06,
            9.514e-06,
            9.568e-06,
            9.622e-06,
            9.676e-06,
            9.732e-06,
            9.787e-06,
            9.827e-06,
            9.843e-06,
            9.847e-06,
            9.865e-06,
            9.884e-06,
            9.9e-06,
            9.903e-06,
            9.923e-06,
            9.942e-06,
            9.961e-06,
            9.98e-06,
            9.999e-06,
            1.001e-05,
            1.003e-05,
            1.007e-05,
            1.009e-05,
            1.011e-05,
            1.013e-05,
            1.014e-05,
            1.015e-05,
            1.017e-05,
            1.017e-05,
            1.019e-05,
            1.02e-05,
            1.021e-05,
            1.023e-05,
            1.026e-05,
            1.029e-05,
            1.032e-05,
            1.035e-05,
            1.038e-05,
            1.041e-05,
            1.044e-05,
            1.047e-05,
            1.048e-05,
            1.05e-05,
            1.05e-05,
            1.052e-05,
            1.053e-05,
            1.054e-05,
            1.056e-05,
            1.058e-05,
            1.06e-05,
            1.062e-05,
            1.064e-05,
            1.066e-05,
            1.069e-05,
            1.071e-05,
            1.073e-05,
            1.075e-05,
            1.077e-05,
            1.079e-05,
            1.082e-05,
            1.084e-05,
            1.086e-05,
            1.088e-05,
            1.092e-05,
            1.095e-05,
            1.099e-05,
            1.102e-05,
            1.105e-05,
            1.109e-05,
            1.112e-05,
            1.116e-05,
            1.119e-05,
            1.122e-05,
            1.126e-05,
            1.129e-05,
            1.133e-05,
            1.136e-05,
            1.14e-05,
            1.146e-05,
            1.149e-05,
            1.153e-05,
            1.156e-05,
            1.16e-05,
            1.163e-05,
            1.167e-05,
            1.171e-05,
            1.174e-05,
            1.178e-05,
            1.182e-05,
            1.186e-05,
            1.189e-05,
            1.193e-05,
            1.197e-05,
            1.201e-05,
            1.204e-05,
            1.208e-05,
            1.212e-05,
            1.216e-05,
            1.22e-05,
            1.224e-05,
            1.228e-05,
            1.229e-05,
            1.232e-05,
            1.233e-05,
            1.237e-05,
            1.241e-05,
            1.245e-05,
            1.249e-05,
            1.253e-05,
            1.257e-05,
            1.261e-05,
            1.265e-05,
            1.269e-05,
            1.273e-05,
            1.277e-05,
            1.281e-05,
            1.286e-05,
            1.291e-05,
            1.296e-05,
            1.3e-05,
            1.304e-05,
            1.308e-05,
            1.313e-05,
            1.313e-05,
            1.317e-05,
            1.317e-05,
            1.322e-05,
            1.326e-05,
            1.33e-05,
            1.335e-05,
            1.339e-05,
            1.344e-05,
            1.348e-05,
            1.353e-05,
            1.357e-05,
            1.362e-05,
            1.367e-05,
            1.371e-05,
            1.376e-05,
            1.38e-05,
            1.385e-05,
            1.391e-05,
            1.396e-05,
            1.401e-05,
            1.406e-05,
            1.411e-05,
            1.415e-05,
            1.42e-05,
            1.425e-05,
            1.43e-05,
            1.435e-05,
            1.44e-05,
            1.45e-05,
            1.455e-05,
            1.455e-05,
            1.46e-05,
            1.465e-05,
            1.47e-05,
            1.476e-05,
            1.481e-05,
            1.486e-05,
            1.491e-05,
            1.496e-05,
            1.502e-05,
            1.507e-05,
            1.511e-05,
            1.512e-05,
            1.516e-05,
            1.521e-05,
            1.527e-05,
            1.532e-05,
            1.538e-05,
            1.543e-05,
            1.549e-05,
            1.554e-05,
            1.56e-05,
            1.566e-05,
            1.571e-05,
            1.577e-05,
            1.583e-05,
            1.588e-05,
            1.594e-05,
            1.6e-05,
            1.606e-05,
            1.612e-05,
            1.618e-05,
            1.624e-05,
            1.63e-05,
            1.636e-05,
            1.642e-05,
            1.648e-05,
            1.654e-05,
            1.66e-05,
            1.666e-05,
            1.672e-05,
            1.673e-05,
            1.679e-05,
            1.679e-05,
            1.685e-05,
            1.692e-05,
            1.698e-05,
            1.704e-05,
            1.711e-05,
            1.717e-05,
            1.724e-05,
            1.73e-05,
            1.737e-05,
            1.743e-05,
            1.75e-05,
            1.757e-05,
            1.764e-05,
            1.77e-05,
            1.777e-05,
            1.784e-05,
            1.786e-05,
            1.791e-05,
            1.793e-05,
            1.798e-05,
            1.8e-05,
            1.805e-05,
            1.807e-05,
            1.812e-05,
            1.819e-05,
            1.826e-05,
            1.833e-05,
            1.835e-05,
            1.84e-05,
            1.842e-05,
            1.848e-05,
            1.85e-05,
            1.857e-05,
            1.864e-05,
            1.872e-05,
            1.879e-05,
            1.887e-05,
            1.894e-05,
            1.902e-05,
            1.909e-05,
            1.917e-05,
            1.924e-05,
            1.93e-05,
            1.932e-05,
            1.938e-05,
            1.94e-05,
            1.945e-05,
            1.953e-05,
            1.961e-05,
            1.969e-05,
            1.977e-05,
            1.985e-05,
            1.993e-05,
            2.001e-05,
            2.01e-05,
            2.018e-05,
            2.026e-05,
            2.026e-05,
            2.034e-05,
            2.034e-05,
            2.043e-05,
            2.043e-05,
            2.051e-05,
            2.051e-05,
            2.06e-05,
            2.068e-05,
            2.077e-05,
            2.085e-05,
            2.094e-05,
            2.094e-05,
            2.1e-05,
            2.109e-05,
            2.118e-05,
            2.127e-05,
            2.136e-05,
            2.138e-05,
            2.144e-05,
            2.15e-05,
            2.156e-05,
            2.162e-05,
            2.168e-05,
            2.174e-05,
            2.18e-05,
            2.186e-05,
            2.193e-05,
            2.199e-05,
            2.205e-05,
            2.211e-05,
            2.218e-05,
            2.224e-05,
            2.231e-05,
            2.237e-05,
            2.243e-05,
            2.25e-05,
            2.256e-05,
            2.263e-05,
            2.27e-05,
            2.276e-05,
            2.283e-05,
            2.289e-05,
            2.296e-05,
            2.303e-05,
            2.31e-05,
            2.311e-05,
            2.316e-05,
            2.321e-05,
            2.331e-05,
            2.342e-05,
            2.352e-05,
            2.362e-05,
            2.373e-05,
            2.383e-05,
            2.394e-05,
            2.405e-05,
            2.416e-05,
            2.427e-05,
            2.437e-05,
            2.448e-05,
            2.46e-05,
            2.471e-05,
            2.482e-05,
            2.493e-05,
            2.504e-05,
            2.505e-05,
            2.516e-05,
            2.527e-05,
            2.539e-05,
            2.539e-05,
            2.551e-05,
            2.551e-05,
            2.563e-05,
            2.575e-05,
            2.587e-05,
            2.599e-05,
            2.611e-05,
            2.623e-05,
            2.635e-05,
            2.648e-05,
            2.66e-05,
            2.673e-05,
            2.685e-05,
            2.686e-05,
            2.694e-05,
            2.698e-05,
            2.703e-05,
            2.711e-05,
            2.711e-05,
            2.72e-05,
            2.724e-05,
            2.729e-05,
            2.737e-05,
            2.737e-05,
            2.746e-05,
            2.75e-05,
            2.755e-05,
            2.763e-05,
            2.764e-05,
            2.773e-05,
            2.777e-05,
            2.782e-05,
            2.79e-05,
            2.791e-05,
            2.8e-05,
            2.803e-05,
            2.809e-05,
            2.817e-05,
            2.818e-05,
            2.827e-05,
            2.831e-05,
            2.836e-05,
            2.844e-05,
            2.845e-05,
            2.854e-05,
            2.858e-05,
            2.864e-05,
            2.872e-05,
            2.873e-05,
            2.882e-05,
            2.886e-05,
            2.892e-05,
            2.901e-05,
            2.901e-05,
            2.911e-05,
            2.915e-05,
            2.921e-05,
            2.93e-05,
            2.939e-05,
            2.94e-05,
            2.944e-05,
            2.95e-05,
            2.954e-05,
            2.959e-05,
            2.968e-05,
            2.969e-05,
            2.979e-05,
            2.983e-05,
            2.989e-05,
            2.998e-05,
            2.999e-05,
            3.009e-05,
            3.019e-05,
            3.029e-05,
            3.039e-05,
            3.05e-05,
            3.06e-05,
            3.07e-05,
            3.081e-05,
            3.091e-05,
            3.101e-05,
            3.112e-05,
            3.123e-05,
            3.133e-05,
            3.144e-05,
            3.155e-05,
            3.166e-05,
            3.166e-05,
            3.176e-05,
            3.177e-05,
            3.187e-05,
            3.187e-05,
            3.198e-05,
            3.198e-05,
            3.209e-05,
            3.209e-05,
            3.22e-05,
            3.221e-05,
            3.232e-05,
            3.243e-05,
            3.254e-05,
            3.265e-05,
            3.277e-05,
            3.288e-05,
            3.3e-05,
            3.311e-05,
            3.323e-05,
            3.335e-05,
            3.346e-05,
            3.358e-05,
            3.37e-05,
            3.382e-05,
            3.394e-05,
            3.394e-05,
            3.406e-05,
            3.406e-05,
            3.418e-05,
            3.418e-05,
            3.43e-05,
            3.431e-05,
            3.443e-05,
            3.443e-05,
            3.455e-05,
            3.455e-05,
            3.467e-05,
            3.468e-05,
            3.48e-05,
            3.492e-05,
            3.505e-05,
            3.518e-05,
            3.53e-05,
            3.543e-05,
            3.556e-05,
            3.569e-05,
            3.582e-05,
            3.595e-05,
            3.608e-05,
            3.622e-05,
            3.635e-05,
            3.648e-05,
            3.662e-05,
            3.675e-05,
            3.689e-05,
            3.703e-05,
            3.716e-05,
            3.73e-05,
            3.744e-05,
            3.758e-05,
            3.772e-05,
            3.786e-05,
            3.8e-05,
            3.815e-05,
            3.829e-05,
            3.844e-05,
            3.858e-05,
            3.873e-05,
            3.887e-05,
            3.902e-05,
            3.917e-05,
            3.932e-05,
            3.947e-05,
            3.962e-05,
            3.978e-05,
            3.993e-05,
            4.008e-05,
            4.024e-05,
            4.039e-05,
            4.055e-05,
            4.071e-05,
            4.087e-05,
            4.103e-05,
            4.119e-05,
            4.135e-05,
            4.151e-05,
            4.167e-05,
            4.184e-05,
            4.2e-05,
            4.217e-05,
            4.234e-05,
            4.25e-05,
            4.267e-05,
            4.284e-05,
            4.301e-05,
            4.319e-05,
            4.336e-05,
            4.353e-05,
            4.371e-05,
            4.389e-05,
            4.406e-05,
            4.424e-05,
            4.442e-05,
            4.46e-05,
            4.479e-05,
            4.497e-05,
            4.515e-05,
            4.534e-05,
            4.552e-05,
            4.571e-05,
            4.59e-05,
            4.609e-05,
            4.628e-05,
            4.647e-05,
            4.667e-05,
            4.686e-05,
            4.706e-05,
            4.725e-05,
            4.745e-05,
            4.765e-05,
            4.785e-05,
            4.806e-05,
            4.826e-05,
            4.846e-05,
            4.867e-05,
            4.888e-05,
            4.909e-05,
            4.93e-05,
            4.951e-05,
            4.972e-05,
            4.993e-05,
            5.015e-05,
            5.037e-05,
            5.058e-05,
            5.08e-05,
            5.103e-05,
            5.125e-05,
            5.147e-05,
            5.17e-05,
            5.192e-05,
            5.215e-05,
            5.238e-05,
            5.261e-05,
            5.285e-05,
            5.308e-05,
            5.332e-05,
            5.356e-05,
            5.38e-05,
            5.404e-05,
            5.428e-05,
            5.452e-05,
            5.477e-05,
            5.502e-05,
            5.527e-05,
            5.552e-05,
            5.577e-05,
            5.577e-05,
            5.602e-05,
            5.602e-05,
            5.628e-05,
            5.628e-05,
            5.654e-05,
            5.654e-05,
            5.68e-05,
            5.68e-05,
            5.706e-05,
            5.706e-05,
            5.732e-05,
            5.732e-05,
            5.759e-05,
            5.759e-05,
            5.785e-05,
            5.786e-05,
            5.812e-05,
            5.839e-05,
            5.867e-05,
            5.894e-05,
            5.922e-05,
            5.95e-05,
            5.978e-05,
            6.006e-05,
            6.034e-05,
            6.063e-05,
            6.092e-05,
            6.121e-05,
            6.15e-05,
            6.18e-05,
            6.209e-05,
            6.239e-05,
            6.269e-05,
            6.3e-05,
            6.33e-05,
            6.361e-05,
            6.392e-05,
            6.423e-05,
            6.455e-05,
            6.486e-05,
            6.518e-05,
            6.55e-05,
            6.583e-05,
            6.615e-05,
            6.648e-05,
            6.681e-05,
            6.715e-05,
            6.748e-05,
            6.782e-05,
            6.816e-05,
            6.851e-05,
            6.885e-05,
            6.92e-05,
            6.955e-05,
            6.991e-05,
            7.027e-05,
            7.063e-05,
            7.099e-05,
            7.135e-05,
            7.172e-05,
            7.209e-05,
            7.247e-05,
            7.284e-05,
            7.322e-05,
            7.361e-05,
            7.361e-05,
            7.399e-05,
            7.399e-05,
            7.438e-05,
            7.438e-05,
            7.477e-05,
            7.477e-05,
            7.517e-05,
            7.517e-05,
            7.557e-05,
            7.597e-05,
            7.637e-05,
            7.678e-05,
            7.719e-05,
            7.761e-05,
            7.802e-05,
            7.845e-05,
            7.887e-05,
            7.93e-05,
            7.973e-05,
            8.017e-05,
            8.06e-05,
            8.105e-05,
            8.149e-05,
            8.194e-05,
            8.24e-05,
            8.285e-05,
            8.331e-05,
            8.378e-05,
            8.425e-05,
            8.472e-05,
            8.52e-05,
            8.568e-05,
            8.616e-05,
            8.665e-05,
            8.714e-05,
            8.764e-05,
            8.814e-05,
            8.865e-05,
            8.916e-05,
            8.967e-05,
            9.019e-05,
            9.072e-05,
            9.124e-05,
            9.178e-05,
            9.231e-05,
            9.286e-05,
            9.34e-05,
            9.396e-05,
            9.451e-05,
            9.507e-05,
            9.564e-05,
            9.621e-05,
            9.679e-05,
            9.737e-05,
            9.796e-05,
            9.855e-05,
            9.915e-05,
            9.975e-05,
            0.0001003,
            0.0001009,
            0.0001016,
            0.0001022,
            0.0001028,
            0.0001034,
            0.0001041,
            0.0001047,
            0.0001054,
            0.0001061,
            0.0001067,
            0.0001074,
            0.0001081,
            0.0001088,
            0.0001095,
            0.0001102,
            0.0001109,
            0.0001116,
            0.0001123,
            0.000113,
            0.0001138,
            0.0001145,
            0.0001153,
            0.000116,
            0.0001168,
            0.0001176,
            0.0001183,
            0.0001191,
            0.0001199,
            0.0001207,
            0.0001215,
            0.0001224,
            0.0001232,
            0.000124,
            0.0001249,
            0.0001257,
            0.0001266,
            0.0001275,
            0.0001283,
            0.0001292,
            0.0001301,
            0.000131,
            0.000132,
            0.0001329,
            0.0001338,
            0.0001348,
            0.0001357,
            0.0001367,
            0.0001377,
            0.0001387,
            0.0001397,
            0.0001407,
            0.0001417,
            0.0001427,
            0.0001438,
            0.0001448,
            0.0001459,
            0.000147,
            0.0001481,
            0.0001492,
            0.0001503,
            0.0001514,
            0.0001526,
            0.0001537,
            0.0001549,
            0.0001561,
            0.0001573,
            0.0001585,
            0.0001597,
            0.0001609,
            0.0001622,
            0.0001634,
            0.0001647,
            0.000166,
            0.0001673,
            0.0001686,
            0.00017,
            0.0001713,
            0.0001727,
            0.0001741,
            0.0001755,
            0.0001769,
            0.0001784,
            0.0001798,
            0.0001813,
            0.0001828,
            0.0001843,
            0.0001859,
            0.0001874,
            0.000189,
            0.0001906,
            0.0001922,
            0.0001938,
            0.0001955,
            0.0001972,
            0.0001988,
            0.0002006,
            0.0002023,
            0.0002041,
            0.0002059,
            0.0002077,
            0.0002095,
            0.0002114,
            0.0002132,
            0.0002152,
            0.0002171,
            0.000219,
            0.000221,
            0.000223,
            0.0002251,
            0.0002272,
            0.0002293,
            0.0002314,
            0.0002335,
            0.0002357,
            0.000238,
            0.0002402,
            0.0002425,
            0.0002448,
            0.0002472,
            0.0002495,
            0.000252,
            0.0002544,
            0.0002569,
            0.0002594,
            0.000262,
            0.0002646,
            0.0002672,
            0.0002699,
            0.0002726,
            0.0002754,
            0.0002782,
            0.000281,
            0.0002839,
            0.0002869,
            0.0002898,
            0.0002929,
            0.0002959,
            0.0002991,
            0.0003022,
            0.0003055,
            0.0003087,
            0.0003121,
            0.0003155,
            0.0003189,
            0.0003224,
            0.0003259,
            0.0003296,
            0.0003332,
            0.000337,
            0.0003408,
            0.0003446,
            0.0003485,
            0.0003525,
            0.0003566,
            0.0003607,
            0.0003649,
            0.0003692,
            0.0003736,
            0.000378,
            0.0003825,
            0.0003871,
            0.0003918,
            0.0003966,
            0.0004014,
            0.0004064,
            0.0004114,
            0.0004165,
            0.0004217,
            0.0004271,
            0.0004325,
            0.000438,
            0.0004437,
            0.0004494,
            0.0004553,
            0.0004612,
            0.0004673,
            0.0004735,
            0.0004799,
            0.0004863,
            0.0004929,
            0.0004997,
            0.0005065,
            0.0005135,
            0.0005207,
            0.000528,
            0.0005355,
            0.0005431,
            0.0005509,
            0.0005588,
            0.000567,
            0.0005753,
            0.0005838,
            0.0005924,
            0.0006013,
            0.0006104,
            0.0006197,
            0.0006292,
            0.0006389,
            0.0006488,
            0.000659,
            0.0006694,
            0.0006801,
            0.000691,
            0.0007022,
            0.0007137,
            0.0007254,
            0.0007375,
            0.0007498,
            0.0007625,
            0.0007754,
            0.0007888,
            0.0008024,
            0.0008164,
            0.0008308,
            0.0008456,
            0.0008608,
            0.0008763,
            0.0008923,
            0.0009088,
            0.0009257,
            0.0009431,
            0.000961,
            0.0009794,
            0.0009983,
            0.001017,
            0.001037,
            0.001058,
            0.001079,
            0.001101,
            0.001124,
            0.001147,
            0.001171,
            0.001196,
            0.001222,
            0.001248,
            0.001275,
            0.001303,
            0.001333,
            0.001363,
            0.001394,
            0.001426,
            0.001459,
            0.001494,
            0.00153,
            0.001567,
            0.001605,
            0.001645,
            0.001687,
            0.00173,
            0.001774,
            0.001821,
            0.001869,
            0.001919,
            0.001971,
            0.002026,
            0.002082,
            0.002142,
            0.002203,
            0.002268,
            0.002335,
            0.002405,
            0.002478,
            0.002555,
            0.002636,
            0.00272,
            0.002809,
            0.002901,
            0.002999,
            0.003101,
            0.003209,
            0.003323,
            0.003443,
            0.003569,
            0.003703,
            0.003844,
            0.003993,
            0.004151,
            0.004319,
            0.004497,
            0.004686,
            0.004888,
            0.005103,
            0.005332,
            0.005577,
            0.005839,
            0.006121,
            0.006423,
            0.006748,
            0.007099,
            0.007477,
            0.007887,
            0.008331,
            0.008814
          ],
          [
            349.4,
            342.7,
            342.8,
            336.6,
            331.5,
            333.7,
            324.7,
            326.1,
            321.3,
            317.7,
            317.0,
            312.2,
            306.6,
            303.5,
            298.1,
            293.8,
            294.3,
            287.7,
            288.3,
            280.6,
            279.2,
            275.0,
            272.3,
            268.7,
            262.2,
            261.4,
            257.6,
            257.3,
            254.9,
            252.2,
            240.3,
            244.0,
            243.1,
            239.5,
            239.6,
            240.3,
            237.1,
            235.6,
            232.6,
            230.4,
            230.4,
            227.6,
            222.9,
            221.0,
            215.8,
            211.5,
            209.7,
            200.2,
            208.1,
            208.2,
            203.8,
            202.8,
            202.0,
            200.8,
            196.6,
            198.9,
            193.8,
            196.0,
            186.6,
            193.1,
            188.7,
            182.5,
            186.5,
            179.9,
            182.2,
            179.1,
            182.4,
            170.9,
            176.9,
            173.3,
            174.6,
            168.6,
            171.9,
            170.8,
            164.0,
            167.1,
            168.8,
            164.0,
            162.1,
            154.3,
            162.9,
            158.0,
            151.6,
            152.7,
            153.5,
            151.1,
            152.9,
            147.9,
            145.3,
            145.6,
            143.9,
            143.2,
            142.4,
            144.8,
            137.5,
            139.3,
            141.3,
            137.2,
            141.4,
            140.7,
            144.7,
            141.2,
            140.9,
            139.4,
            137.0,
            143.1,
            137.1,
            141.4,
            141.8,
            147.1,
            145.9,
            145.9,
            151.5,
            152.2,
            158.0,
            164.3,
            169.6,
            169.4,
            167.3,
            182.5,
            187.7,
            192.3,
            203.5,
            215.9,
            219.0,
            230.1,
            227.7,
            227.4,
            237.9,
            242.8,
            242.4,
            245.7,
            259.4,
            268.0,
            281.3,
            284.2,
            288.0,
            297.3,
            307.7,
            318.6,
            326.3,
            330.0,
            346.5,
            353.2,
            356.1,
            368.5,
            375.6,
            396.9,
            402.2,
            412.0,
            427.0,
            442.0,
            449.0,
            456.8,
            462.0,
            508.0,
            536.0,
            560.0,
            638.0,
            734.0,
            855.0,
            952.0,
            1035.0,
            1020.0,
            958.0,
            841.0,
            682.0,
            578.0,
            485.0,
            451.0,
            419.0,
            423.0,
            380.0,
            364.5,
            353.3,
            342.9,
            337.8,
            333.1,
            349.2,
            352.8,
            383.6,
            411.0,
            445.0,
            480.0,
            523.0,
            608.0,
            619.0,
            755.0,
            796.0,
            834.0,
            907.0,
            981.0,
            1038.0,
            1022.0,
            992.0,
            995.0,
            914.0,
            793.0,
            692.0,
            668.0,
            538.0,
            462.0,
            416.0,
            393.0,
            331.7,
            295.0,
            272.6,
            259.0,
            203.0,
            145.8,
            114.7,
            102.6,
            93.4,
            93.3,
            90.1,
            86.0,
            80.6,
            86.2,
            79.0,
            79.4,
            78.3,
            74.5,
            74.1,
            74.4,
            71.8,
            69.3,
            69.2,
            71.7,
            72.1,
            70.0,
            73.2,
            71.0,
            71.7,
            69.8,
            71.0,
            68.9,
            66.9,
            71.3,
            72.0,
            70.3,
            74.0,
            71.3,
            72.2,
            72.9,
            72.5,
            73.9,
            78.8,
            76.6,
            76.1,
            79.5,
            82.2,
            81.1,
            82.9,
            83.5,
            85.1,
            88.5,
            93.1,
            95.0,
            96.9,
            99.7,
            101.9,
            100.7,
            102.6,
            105.7,
            99.5,
            114.0,
            102.2,
            111.6,
            111.4,
            116.3,
            124.5,
            123.9,
            129.1,
            129.5,
            123.8,
            135.5,
            132.3,
            141.4,
            143.6,
            148.8,
            148.9,
            153.6,
            161.0,
            170.7,
            180.7,
            187.7,
            181.4,
            211.3,
            220.5,
            236.5,
            247.8,
            258.6,
            273.9,
            274.1,
            261.4,
            255.8,
            241.7,
            220.8,
            202.8,
            183.4,
            163.0,
            150.7,
            133.3,
            118.7,
            122.6,
            111.5,
            101.1,
            96.7,
            98.3,
            91.3,
            92.0,
            92.2,
            89.8,
            91.1,
            84.3,
            84.3,
            80.4,
            80.0,
            76.9,
            73.7,
            71.0,
            73.2,
            71.9,
            70.0,
            70.4,
            68.6,
            69.5,
            69.5,
            69.7,
            72.0,
            74.4,
            77.0,
            79.1,
            82.3,
            86.9,
            91.7,
            95.6,
            101.6,
            103.8,
            105.7,
            108.9,
            108.9,
            113.1,
            112.4,
            117.6,
            128.5,
            130.4,
            128.8,
            128.2,
            127.6,
            127.6,
            127.4,
            128.3,
            122.4,
            120.2,
            119.1,
            116.1,
            114.0,
            112.6,
            109.1,
            109.6,
            103.9,
            102.0,
            102.1,
            98.5,
            97.5,
            97.0,
            95.0,
            94.5,
            90.4,
            86.9,
            83.8,
            83.5,
            82.7,
            79.3,
            79.3,
            75.9,
            74.4,
            75.6,
            74.4,
            73.0,
            72.3,
            75.0,
            74.4,
            70.9,
            75.4,
            76.3,
            78.4,
            81.3,
            86.1,
            87.8,
            94.7,
            103.0,
            113.3,
            118.9,
            126.7,
            135.7,
            144.7,
            144.3,
            142.7,
            139.2,
            114.6,
            118.1,
            119.0,
            121.3,
            122.0,
            123.1,
            127.3,
            134.9,
            134.1,
            144.2,
            157.1,
            163.1,
            174.8,
            188.2,
            209.0,
            237.4,
            282.6,
            349.3,
            312.8,
            355.0,
            390.3,
            392.5,
            422.0,
            458.0,
            484.0,
            517.0,
            523.0,
            597.0,
            669.0,
            687.0,
            705.0,
            689.0,
            794.0,
            824.0,
            849.0,
            861.0,
            875.0,
            795.0,
            784.0,
            783.0,
            703.0,
            673.0,
            616.0,
            619.0,
            479.0,
            534.0,
            431.0,
            490.0,
            410.0,
            446.0,
            370.7,
            346.4,
            310.9,
            267.3,
            249.4,
            229.0,
            197.7,
            179.5,
            171.5,
            153.7,
            144.7,
            135.3,
            143.6,
            121.0,
            114.8,
            108.0,
            111.4,
            97.0,
            107.7,
            96.3,
            84.0,
            78.7,
            70.4,
            67.0,
            66.8,
            66.6,
            67.5,
            70.0,
            72.0,
            72.0,
            68.3,
            60.5,
            54.7,
            53.1,
            48.9,
            48.0,
            44.4,
            44.1,
            43.6,
            41.5,
            43.3,
            40.4,
            39.4,
            40.3,
            39.7,
            38.8,
            40.8,
            38.8,
            40.8,
            42.0,
            43.9,
            45.1,
            47.4,
            48.7,
            50.3,
            54.3,
            53.7,
            56.6,
            55.0,
            53.2,
            49.2,
            49.0,
            46.9,
            49.2,
            52.6,
            62.6,
            71.6,
            83.9,
            91.2,
            94.4,
            91.3,
            83.9,
            83.0,
            78.0,
            75.5,
            76.8,
            78.5,
            80.5,
            85.3,
            86.3,
            91.7,
            96.5,
            103.9,
            101.5,
            98.4,
            116.8,
            116.5,
            122.7,
            127.5,
            128.6,
            157.8,
            177.8,
            199.8,
            212.1,
            237.9,
            259.0,
            273.0,
            267.3,
            245.2,
            297.4,
            378.6,
            411.0,
            384.5,
            434.0,
            453.0,
            497.0,
            579.0,
            606.0,
            635.0,
            627.0,
            597.0,
            580.0,
            521.0,
            412.0,
            369.9,
            447.0,
            337.6,
            366.3,
            319.7,
            283.0,
            259.2,
            229.5,
            212.4,
            205.0,
            189.9,
            159.4,
            170.1,
            145.4,
            142.8,
            113.2,
            124.5,
            110.8,
            114.8,
            102.2,
            100.9,
            105.9,
            101.7,
            101.4,
            99.9,
            98.5,
            102.0,
            101.9,
            100.6,
            106.0,
            108.9,
            107.2,
            111.0,
            112.4,
            99.5,
            94.6,
            85.0,
            79.7,
            75.6,
            71.1,
            69.5,
            68.5,
            71.2,
            70.1,
            71.7,
            71.8,
            72.3,
            74.1,
            73.1,
            72.2,
            74.6,
            79.9,
            78.5,
            77.5,
            80.1,
            80.5,
            87.0,
            88.9,
            96.7,
            102.9,
            101.0,
            106.3,
            107.0,
            132.3,
            143.2,
            160.9,
            185.1,
            222.2,
            263.6,
            313.9,
            352.4,
            406.5,
            438.4,
            427.9,
            374.8,
            314.7,
            252.7,
            201.1,
            169.0,
            132.1,
            105.8,
            111.9,
            93.6,
            99.3,
            88.6,
            86.8,
            87.3,
            91.7,
            94.4,
            99.9,
            106.1,
            110.3,
            117.3,
            127.5,
            133.7,
            133.7,
            126.9,
            102.9,
            86.1,
            72.3,
            62.1,
            54.3,
            48.9,
            43.9,
            39.9,
            36.8,
            34.5,
            31.9,
            30.3,
            28.0,
            27.1,
            27.4,
            26.2,
            27.5,
            25.2,
            26.5,
            25.0,
            27.7,
            28.2,
            31.4,
            37.3,
            48.6,
            65.4,
            94.4,
            94.6,
            120.1,
            184.1,
            244.7,
            302.8,
            290.3,
            263.5,
            225.9,
            174.5,
            142.5,
            125.4,
            112.3,
            102.4,
            106.6,
            110.5,
            119.5,
            144.0,
            155.4,
            166.8,
            193.8,
            206.8,
            208.9,
            218.0,
            236.7,
            243.2,
            243.2,
            216.2,
            173.1,
            131.4,
            104.5,
            98.5,
            75.9,
            60.9,
            53.1,
            45.0,
            38.7,
            35.3,
            32.0,
            33.3,
            31.9,
            31.4,
            32.1,
            33.8,
            37.3,
            42.1,
            53.0,
            68.4,
            88.3,
            86.1,
            101.9,
            107.0,
            104.9,
            107.0,
            93.8,
            90.0,
            80.7,
            79.9,
            82.2,
            91.1,
            95.4,
            104.7,
            106.3,
            112.4,
            108.4,
            124.6,
            155.1,
            191.1,
            243.5,
            308.0,
            335.6,
            308.6,
            243.5,
            181.2,
            133.6,
            102.0,
            107.6,
            87.1,
            88.7,
            75.8,
            69.1,
            61.9,
            58.4,
            56.8,
            58.0,
            57.4,
            59.4,
            67.5,
            75.9,
            89.9,
            95.5,
            108.9,
            110.9,
            116.7,
            135.7,
            103.3,
            150.2,
            157.8,
            148.3,
            120.7,
            108.0,
            87.3,
            91.0,
            79.3,
            72.9,
            76.8,
            81.4,
            95.2,
            102.5,
            115.0,
            145.1,
            161.8,
            198.3,
            252.7,
            296.4,
            319.0,
            315.1,
            322.9,
            307.2,
            324.7,
            352.3,
            410.3,
            425.0,
            419.0,
            374.7,
            325.4,
            258.0,
            226.7,
            214.7,
            185.3,
            148.0,
            137.1,
            132.9,
            117.1,
            107.2,
            95.0,
            102.1,
            101.9,
            93.6,
            90.2,
            90.6,
            96.8,
            104.3,
            100.1,
            92.5,
            87.6,
            79.9,
            71.8,
            66.3,
            59.5,
            58.7,
            55.2,
            58.4,
            64.1,
            79.7,
            98.3,
            102.3,
            113.6,
            132.5,
            105.7,
            105.0,
            91.6,
            92.3,
            80.4,
            73.3,
            70.0,
            70.1,
            69.5,
            74.2,
            77.7,
            82.5,
            79.7,
            68.6,
            57.4,
            60.34,
            55.33,
            49.6,
            51.89,
            49.1,
            44.7,
            48.62,
            44.2,
            49.22,
            49.28,
            45.9,
            53.41,
            48.0,
            53.01,
            49.9,
            55.04,
            55.51,
            56.6,
            58.1,
            59.4,
            58.28,
            66.57,
            66.5,
            69.55,
            74.6,
            76.29,
            80.1,
            79.3,
            78.57,
            82.9,
            77.23,
            83.49,
            89.0,
            87.99,
            106.2,
            99.67,
            111.3,
            127.2,
            126.2,
            132.5,
            128.1,
            126.1,
            116.7,
            114.4,
            101.3,
            102.4,
            86.66,
            84.1,
            79.26,
            66.5,
            67.23,
            52.1,
            57.04,
            49.31,
            44.2,
            46.17,
            43.2,
            42.16,
            45.82,
            49.21,
            55.5,
            63.19,
            73.19,
            81.18,
            87.87,
            88.16,
            75.68,
            71.57,
            68.46,
            70.94,
            74.55,
            76.75,
            85.9,
            92.28,
            90.1,
            104.1,
            110.7,
            113.8,
            124.1,
            118.8,
            117.5,
            104.8,
            107.8,
            87.63,
            95.8,
            69.26,
            61.29,
            56.5,
            60.69,
            61.17,
            67.98,
            72.61,
            76.35,
            76.94,
            79.91,
            79.95,
            84.19,
            82.75,
            88.16,
            90.28,
            91.4,
            94.77,
            104.5,
            103.8,
            112.7,
            106.3,
            97.4,
            107.3,
            100.3,
            102.4,
            94.3,
            91.32,
            95.1,
            81.97,
            76.96,
            72.01,
            71.57,
            68.32,
            62.53,
            61.09,
            60.56,
            57.17,
            55.6,
            59.98,
            71.46,
            84.35,
            89.9,
            83.39,
            69.18,
            60.6,
            54.5,
            57.06,
            60.17,
            62.83,
            58.61,
            47.08,
            37.04,
            32.23,
            28.63,
            26.82,
            28.3,
            30.19,
            35.64,
            40.85,
            47.69,
            52.18,
            58.88,
            61.21,
            58.19,
            60.0,
            59.3,
            57.08,
            59.11,
            56.98,
            56.57,
            55.64,
            58.05,
            51.35,
            44.77,
            35.48,
            31.39,
            30.28,
            32.88,
            35.82,
            43.37,
            49.93,
            56.76,
            56.87,
            49.32,
            40.83,
            37.86,
            40.82,
            39.44,
            34.14,
            30.74,
            30.61,
            29.78,
            29.91,
            29.6,
            28.79,
            26.57,
            26.33,
            24.8,
            27.61,
            31.33,
            36.07,
            41.49,
            42.19,
            38.85,
            38.41,
            44.26,
            48.53,
            47.57,
            43.88,
            36.95,
            37.32,
            40.97,
            56.86,
            74.3,
            85.43,
            81.1,
            61.53,
            46.92,
            38.33,
            36.74,
            35.68,
            36.85,
            37.02,
            36.27,
            34.81,
            30.53,
            29.37,
            25.35,
            25.64,
            26.26,
            27.72,
            30.77,
            36.45,
            47.49,
            56.38,
            61.59,
            66.32,
            70.22,
            76.61,
            82.12,
            82.08,
            82.21,
            77.25,
            76.49,
            79.07,
            95.0,
            90.77,
            103.3,
            97.73,
            112.4,
            101.8,
            110.0,
            99.06,
            90.8,
            96.2,
            94.1,
            92.33,
            91.2,
            91.85,
            92.5,
            89.98,
            85.95,
            85.0,
            75.4,
            65.52,
            54.35,
            46.05,
            37.96,
            31.39,
            30.11,
            31.93,
            37.75,
            44.69,
            54.58,
            59.27,
            60.47,
            55.45,
            55.54,
            56.53,
            51.77,
            50.0,
            44.46,
            50.0,
            56.49,
            63.26,
            67.19,
            58.03,
            50.99,
            43.13,
            38.59,
            37.2,
            34.51,
            35.32,
            35.24,
            36.52,
            38.7,
            42.51,
            45.07,
            49.42,
            55.05,
            59.32,
            60.67,
            55.08,
            46.26,
            38.7,
            35.34,
            34.28,
            36.72,
            42.02,
            53.34,
            75.57,
            93.2,
            91.72,
            102.3,
            95.1,
            105.5,
            88.5,
            94.2,
            86.47,
            92.8,
            78.89,
            69.43,
            56.78,
            43.06,
            40.14,
            41.43,
            47.96,
            52.18,
            55.67,
            55.39,
            54.86,
            51.27,
            44.69,
            41.93,
            39.63,
            43.76,
            52.27,
            58.9,
            54.66,
            45.07,
            34.41,
            29.24,
            31.03,
            31.05,
            31.51,
            27.4,
            26.35,
            27.5,
            28.74,
            34.75,
            43.57,
            52.66,
            64.07,
            69.35,
            65.76,
            56.96,
            46.45,
            43.47,
            44.45,
            44.92,
            46.54,
            44.24,
            44.62,
            45.0,
            50.82,
            59.13,
            68.23,
            75.56,
            74.29,
            63.62,
            51.78,
            41.32,
            34.74,
            33.66,
            32.17,
            32.0,
            34.04,
            39.9,
            46.46,
            58.94,
            68.06,
            75.67,
            66.16,
            65.62,
            62.3,
            63.56,
            65.94,
            60.51,
            59.48,
            57.81,
            58.07,
            58.03,
            54.02,
            44.78,
            42.46,
            45.34,
            52.98,
            55.81,
            51.51,
            46.1,
            43.32,
            44.32,
            46.74,
            48.49,
            47.8,
            44.71,
            38.04,
            34.71,
            29.68,
            28.4,
            27.59,
            28.01,
            31.43,
            39.46,
            47.59,
            50.34,
            46.35,
            40.27,
            32.54,
            27.19,
            25.58,
            31.69,
            36.14,
            39.18,
            40.9,
            40.68,
            37.11,
            35.86,
            35.95,
            39.18,
            43.57,
            42.94,
            38.31,
            37.75,
            33.84,
            32.31,
            28.81,
            25.08,
            25.68,
            26.99,
            33.04,
            38.32,
            46.67,
            46.88,
            47.89,
            47.9,
            43.6,
            40.21,
            33.71,
            33.76,
            32.54,
            32.65,
            30.45,
            25.53,
            23.77,
            23.76,
            24.5,
            29.62,
            35.16,
            40.18,
            46.45,
            42.41,
            40.52,
            38.08,
            38.88,
            39.34,
            39.51,
            38.31,
            38.99,
            39.75,
            43.93,
            43.4,
            39.22,
            37.66,
            37.8,
            42.79,
            44.61,
            48.06,
            42.65,
            35.77,
            30.69,
            27.87,
            28.9,
            32.86,
            37.36,
            36.7,
            35.53,
            32.82,
            32.34,
            33.22,
            38.08,
            41.09,
            40.7,
            34.62,
            30.26,
            28.06,
            26.77,
            26.7,
            27.34,
            30.48,
            34.66,
            38.22,
            37.65,
            38.92,
            35.61,
            33.93,
            35.82,
            37.57,
            40.68,
            38.34,
            32.62,
            26.06,
            26.83,
            28.71,
            31.57,
            35.24,
            35.31,
            35.99,
            36.65,
            35.71,
            34.82,
            32.62,
            29.16,
            27.23,
            27.05,
            26.91,
            32.16,
            36.15,
            36.72,
            34.32,
            31.6,
            31.57,
            32.41,
            29.47,
            27.78,
            25.61,
            23.54,
            21.82,
            25.71,
            26.64,
            25.61,
            24.99,
            25.24,
            24.13,
            24.13,
            24.0,
            24.52,
            27.46,
            26.57,
            27.54,
            28.86,
            27.8,
            26.89,
            27.95,
            28.05,
            28.34,
            26.74,
            29.26,
            28.17,
            26.7,
            26.21,
            27.64,
            28.28,
            24.57,
            25.66,
            26.18,
            32.27,
            33.26,
            32.98,
            31.01,
            31.05,
            29.48,
            30.89,
            30.26,
            28.05,
            27.42,
            26.95,
            26.54,
            26.32,
            25.28,
            27.55,
            25.69,
            26.08,
            25.7,
            26.72,
            28.19,
            29.5,
            27.37,
            26.9,
            26.17,
            27.17,
            24.67,
            25.5,
            25.82,
            23.99,
            22.98,
            22.02,
            22.65,
            23.9,
            25.03,
            25.49,
            24.81,
            24.77,
            23.54,
            23.24,
            20.76,
            20.63,
            23.46,
            23.81,
            25.54,
            24.09,
            22.31,
            20.11,
            21.64,
            22.48,
            23.1,
            20.22,
            21.02,
            22.28,
            21.45,
            22.16,
            21.23,
            21.43,
            22.33,
            21.75,
            19.59,
            20.36,
            20.4,
            20.66,
            20.08,
            20.63,
            19.42,
            20.78,
            21.42,
            21.12,
            20.86,
            19.82,
            19.36,
            17.54,
            19.16,
            20.22,
            17.37,
            18.35,
            18.22,
            18.31,
            18.25,
            18.15,
            18.73,
            18.3,
            16.11,
            18.75,
            18.15,
            16.89,
            14.81,
            16.37,
            17.93,
            20.05,
            19.53,
            18.22,
            18.62,
            17.62,
            16.68,
            18.1,
            18.5,
            18.34
          ]
        ]
      }
    }
  }
}