{
  "entry": "11650",
  "last_updated": "2006-07-20",
  "number_of_revisions": "3",
  "histories": [
    {
      "x4_code": "(760730T)",
      "free_txt": [
        " TRANSLATED FROM SCISRS"
      ]
    },
    {
      "x4_code": "(830829A)",
      "free_txt": [
        " CONVERTED TO REACTION FORMALISM"
      ]
    }
  ],
  "bib_record": {
    "title": "TOTAL CROSS SECTION MEASUREMENTS OF V50.",
    "authors": [
      {
        "name": "W.M.Good"
      },
      {
        "name": "R.C.Block"
      }
    ],
    "institutes": [
      {
        "x4_code": "(1USAORL)",
        "free_txt": []
      }
    ],
    "references": {
      "0": [
        {
          "x4_code": "(J,BAP,11,28(BB2),6601)",
          "free_txt": [],
          "publication_year": "1966"
        },
        {
          "x4_code": "(P,WASH-1068,146,6603)",
          "free_txt": [],
          "publication_year": "1966"
        }
      ]
    }
  },
  "data_tables": {
    "001": {
      "common": {
        "heads": [
          "EN-RSL"
        ],
        "units": [
          "PER-CENT"
        ],
        "data": [
          [
            2.0
          ]
        ]
      }
    },
    "002": {
      "reaction": {
        "0": {
          "x4_code": "(23-V-50(N,TOT),,SIG)",
          "0": {
            "code": [
              "23-V-50",
              [
                "N,TOT"
              ],
              ",,SIG"
            ],
            "type": null,
            "target": "23-V-50",
            "process": "N,TOT",
            "sf49": ",,SIG",
            "sf4": null,
            "sf5": null,
            "sf6": "SIG",
            "sf7": null,
            "sf8": null,
            "sf9": null
          },
          "type": null,
          "free_text": ""
        }
      },
      "common": null,
      "data": {
        "heads": [
          "EN",
          "DATA",
          "DATA-ERR"
        ],
        "units": [
          "MEV",
          "B",
          "B"
        ],
        "data": [
          [
            0.003428,
            0.003435,
            0.003442,
            0.003449,
            0.003456,
            0.003463,
            0.003469,
            0.003483,
            0.00349,
            0.003497,
            0.003504,
            0.003511,
            0.003518,
            0.003525,
            0.003532,
            0.003539,
            0.003546,
            0.003554,
            0.003561,
            0.003575,
            0.003597,
            0.003604,
            0.003611,
            0.003619,
            0.003648,
            0.003656,
            0.003671,
            0.003716,
            0.003724,
            0.003731,
            0.003739,
            0.003747,
            0.003849,
            0.003857,
            0.003865,
            0.003874,
            0.003898,
            0.003906,
            0.003914,
            0.003923,
            0.003931,
            0.003964,
            0.003973,
            0.004015,
            0.004103,
            0.004111,
            0.00412,
            0.004129,
            0.004202,
            0.004211,
            0.004248,
            0.004257,
            0.004267,
            0.004286,
            0.004295,
            0.004353,
            0.004362,
            0.004372,
            0.004392,
            0.004401,
            0.004411,
            0.004451,
            0.004461,
            0.004471,
            0.004501,
            0.004512,
            0.004522,
            0.004532,
            0.004542,
            0.004553,
            0.004563,
            0.004574,
            0.004584,
            0.004594,
            0.004605,
            0.004658,
            0.004669,
            0.00468,
            0.004701,
            0.004712,
            0.004723,
            0.004734,
            0.004745,
            0.004756,
            0.004767,
            0.004834,
            0.004846,
            0.004869,
            0.004892,
            0.004903,
            0.004915,
            0.004938,
            0.00495,
            0.004961,
            0.004973,
            0.004985,
            0.004997,
            0.005009,
            0.005021,
            0.005033,
            0.005045,
            0.005057,
            0.005069,
            0.005081,
            0.005106,
            0.005118,
            0.00518,
            0.005193,
            0.005206,
            0.005218,
            0.005231,
            0.005244,
            0.005257,
            0.00527,
            0.005283,
            0.005322,
            0.005335,
            0.005348,
            0.005361,
            0.005374,
            0.005388,
            0.005401,
            0.005414,
            0.005428,
            0.005441,
            0.005455,
            0.005468,
            0.005482,
            0.005496,
            0.00551,
            0.005523,
            0.005537,
            0.005565,
            0.005579,
            0.005593,
            0.005607,
            0.005622,
            0.005636,
            0.00565,
            0.005664,
            0.005722,
            0.005737,
            0.005752,
            0.005766,
            0.005781,
            0.005796,
            0.005811,
            0.005826,
            0.005841,
            0.005856,
            0.005871,
            0.005948,
            0.005963,
            0.006026,
            0.006041,
            0.006057,
            0.006073,
            0.006089,
            0.006105,
            0.006121,
            0.006137,
            0.006154,
            0.00617,
            0.006186,
            0.006203,
            0.006219,
            0.006236,
            0.006253,
            0.006269,
            0.006286,
            0.006303,
            0.00632,
            0.006337,
            0.006354,
            0.006371,
            0.006388,
            0.006405,
            0.006564,
            0.006582,
            0.0066,
            0.006618,
            0.006636,
            0.006654,
            0.006672,
            0.006691,
            0.006709,
            0.006728,
            0.006747,
            0.006765,
            0.006784,
            0.006803,
            0.006822,
            0.006841,
            0.00686,
            0.006879,
            0.006898,
            0.006918,
            0.006937,
            0.006957,
            0.006976,
            0.006996,
            0.007016,
            0.007036,
            0.007056,
            0.007076,
            0.007096,
            0.007116,
            0.007136,
            0.007157,
            0.007177,
            0.007198,
            0.007218,
            0.007239,
            0.00726,
            0.007281,
            0.007302,
            0.007323,
            0.007344,
            0.007365,
            0.007386,
            0.007408,
            0.007429,
            0.007451,
            0.007473,
            0.007495,
            0.007516,
            0.007538,
            0.007561,
            0.007583,
            0.007605,
            0.007627,
            0.00765,
            0.007673,
            0.007695,
            0.007718,
            0.007741,
            0.007764,
            0.007787,
            0.00781,
            0.007834,
            0.007857,
            0.007881,
            0.007904,
            0.007928,
            0.007952,
            0.007976,
            0.008,
            0.008024,
            0.008048,
            0.008073,
            0.008097,
            0.008122,
            0.008146,
            0.008171,
            0.008196,
            0.008221,
            0.008247,
            0.008272,
            0.008297,
            0.008323,
            0.008348,
            0.008374,
            0.0084,
            0.008426,
            0.008452,
            0.008478,
            0.008505,
            0.008531,
            0.008558,
            0.008585,
            0.008612,
            0.008639,
            0.008666,
            0.008693,
            0.00872,
            0.008742,
            0.008748,
            0.008775,
            0.008803,
            0.008812,
            0.008829,
            0.008847,
            0.008859,
            0.008864,
            0.008882,
            0.008887,
            0.008899,
            0.008916,
            0.008935,
            0.008944,
            0.008953,
            0.008971,
            0.008973,
            0.008989,
            0.009001,
            0.009007,
            0.009025,
            0.00903,
            0.009043,
            0.009059,
            0.009061,
            0.009079,
            0.009134,
            0.009152,
            0.009171,
            0.00919,
            0.009206,
            0.009236,
            0.009266,
            0.009296,
            0.009327,
            0.009475,
            0.009494,
            0.009606,
            0.009638,
            0.009835,
            0.009855,
            0.009865,
            0.009898,
            0.009917,
            0.009938,
            0.009959,
            0.01003,
            0.01007,
            0.0101,
            0.01013,
            0.01017,
            0.0102,
            0.01024,
            0.01026,
            0.01028,
            0.0103,
            0.01031,
            0.01033,
            0.01035,
            0.01041,
            0.01044,
            0.01045,
            0.01046,
            0.01048,
            0.01049,
            0.01053,
            0.01055,
            0.0106,
            0.01074,
            0.01094,
            0.01095,
            0.01097,
            0.011,
            0.01102,
            0.01105,
            0.01105,
            0.01107,
            0.01109,
            0.0111,
            0.01112,
            0.01113,
            0.01115,
            0.01117,
            0.01117,
            0.01119,
            0.01122,
            0.01127,
            0.01129,
            0.0113,
            0.01132,
            0.01133,
            0.01135,
            0.01137,
            0.01137,
            0.0114,
            0.01141,
            0.01142,
            0.01145,
            0.01145,
            0.01147,
            0.0115,
            0.0115,
            0.01153,
            0.01154,
            0.01155,
            0.01158,
            0.01158,
            0.01161,
            0.01162,
            0.01163,
            0.01166,
            0.01166,
            0.01168,
            0.01171,
            0.01171,
            0.01174,
            0.01175,
            0.01177,
            0.01179,
            0.01179,
            0.01182,
            0.01184,
            0.01185,
            0.01187,
            0.01188,
            0.0119,
            0.01192,
            0.01193,
            0.01196,
            0.01197,
            0.01198,
            0.01201,
            0.01201,
            0.01204,
            0.01206,
            0.01207,
            0.01209,
            0.0121,
            0.01212,
            0.01215,
            0.01215,
            0.01218,
            0.01219,
            0.01221,
            0.01224,
            0.01224,
            0.01226,
            0.01229,
            0.01232,
            0.01235,
            0.01238,
            0.01241,
            0.01242,
            0.01244,
            0.01247,
            0.01247,
            0.0125,
            0.01251,
            0.01253,
            0.01256,
            0.01259,
            0.01262,
            0.01265,
            0.01268,
            0.01271,
            0.01271,
            0.01274,
            0.01275,
            0.01277,
            0.0128,
            0.0128,
            0.01283,
            0.01285,
            0.01286,
            0.01289,
            0.0129,
            0.01292,
            0.01295,
            0.01298,
            0.013,
            0.01301,
            0.01304,
            0.01305,
            0.01308,
            0.01311,
            0.01314,
            0.01315,
            0.01317,
            0.0132,
            0.01324,
            0.01325,
            0.01327,
            0.0133,
            0.0133,
            0.01333,
            0.01336,
            0.01336,
            0.0134,
            0.01343,
            0.01346,
            0.0135,
            0.01356,
            0.0136,
            0.01362,
            0.01363,
            0.01366,
            0.01367,
            0.0137,
            0.01373,
            0.01373,
            0.01376,
            0.01378,
            0.0138,
            0.01383,
            0.01384,
            0.01387,
            0.01389,
            0.0139,
            0.01394,
            0.01395,
            0.01397,
            0.014,
            0.01401,
            0.01404,
            0.01406,
            0.01408,
            0.01411,
            0.01412,
            0.01415,
            0.01417,
            0.01418,
            0.01422,
            0.01423,
            0.01425,
            0.01429,
            0.01433,
            0.01434,
            0.01436,
            0.0144,
            0.0144,
            0.01443,
            0.01446,
            0.01447,
            0.01451,
            0.01452,
            0.01455,
            0.01458,
            0.01458,
            0.01462,
            0.01464,
            0.01466,
            0.01469,
            0.0147,
            0.01473,
            0.01476,
            0.01477,
            0.01481,
            0.01482,
            0.01485,
            0.01488,
            0.01488,
            0.01492,
            0.01494,
            0.01496,
            0.015,
            0.015,
            0.01504,
            0.01507,
            0.01508,
            0.01512,
            0.01513,
            0.01516,
            0.01519,
            0.01519,
            0.01523,
            0.01525,
            0.01527,
            0.01531,
            0.01532,
            0.01535,
            0.01538,
            0.01539,
            0.01543,
            0.01545,
            0.01548,
            0.01551,
            0.01552,
            0.01556,
            0.01558,
            0.0156,
            0.01564,
            0.01564,
            0.01568,
            0.01571,
            0.01572,
            0.01576,
            0.01578,
            0.01581,
            0.01584,
            0.01585,
            0.01589,
            0.01591,
            0.01593,
            0.01597,
            0.01598,
            0.01602,
            0.01605,
            0.01606,
            0.0161,
            0.01611,
            0.01615,
            0.01618,
            0.01619,
            0.01623,
            0.01625,
            0.01628,
            0.01632,
            0.01632,
            0.01636,
            0.01639,
            0.01641,
            0.01645,
            0.01646,
            0.0165,
            0.01654,
            0.01654,
            0.01659,
            0.01661,
            0.01663,
            0.01668,
            0.01668,
            0.01672,
            0.01675,
            0.01677,
            0.01681,
            0.01683,
            0.01686,
            0.0169,
            0.01691,
            0.01695,
            0.01697,
            0.017,
            0.01705,
            0.01705,
            0.01709,
            0.01712,
            0.01714,
            0.01714,
            0.01718,
            0.01719,
            0.0172,
            0.01721,
            0.01724,
            0.01725,
            0.01728,
            0.01728,
            0.01728,
            0.01732,
            0.01733,
            0.01735,
            0.01738,
            0.01738,
            0.01742,
            0.01743,
            0.01743,
            0.01745,
            0.01748,
            0.01749,
            0.01751,
            0.01752,
            0.01753,
            0.01756,
            0.01757,
            0.01759,
            0.01759,
            0.01762,
            0.01763,
            0.01766,
            0.01767,
            0.01767,
            0.0177,
            0.01772,
            0.01774,
            0.01775,
            0.01777,
            0.01777,
            0.01781,
            0.01782,
            0.01783,
            0.01784,
            0.01787,
            0.01791,
            0.01792,
            0.01795,
            0.01797,
            0.01799,
            0.01799,
            0.01802,
            0.01803,
            0.01806,
            0.01807,
            0.01808,
            0.0181,
            0.01813,
            0.01813,
            0.01815,
            0.01817,
            0.01818,
            0.01821,
            0.01823,
            0.01823,
            0.01825,
            0.01828,
            0.01828,
            0.01832,
            0.01834,
            0.01836,
            0.01839,
            0.01839,
            0.0184,
            0.01843,
            0.01844,
            0.01847,
            0.01848,
            0.01849,
            0.01851,
            0.01855,
            0.01857,
            0.01858,
            0.0186,
            0.01862,
            0.01865,
            0.01866,
            0.01866,
            0.0187,
            0.01871,
            0.01874,
            0.01874,
            0.01876,
            0.01878,
            0.01882,
            0.01882,
            0.01883,
            0.01886,
            0.01887,
            0.01889,
            0.01892,
            0.01893,
            0.01893,
            0.01897,
            0.01898,
            0.019,
            0.01901,
            0.01904,
            0.01905,
            0.01909,
            0.01909,
            0.01909,
            0.01913,
            0.01915,
            0.01917,
            0.01918,
            0.0192,
            0.01921,
            0.01925,
            0.01926,
            0.01927,
            0.01929,
            0.01932,
            0.01933,
            0.01936,
            0.01937,
            0.01937,
            0.01941,
            0.01943,
            0.01945,
            0.01946,
            0.01949,
            0.0195,
            0.01954,
            0.01954,
            0.01954,
            0.01958,
            0.0196,
            0.01962,
            0.01964,
            0.01966,
            0.01966,
            0.0197,
            0.01972,
            0.01973,
            0.01975,
            0.01978,
            0.01979,
            0.01982,
            0.01983,
            0.01984,
            0.01987,
            0.01989,
            0.01991,
            0.01992,
            0.01995,
            0.01996,
            0.02,
            0.02001,
            0.02001,
            0.02004,
            0.02007,
            0.02008,
            0.02011,
            0.02013,
            0.02013,
            0.02017,
            0.02019,
            0.02021,
            0.02021,
            0.02025,
            0.02026,
            0.0203,
            0.0203,
            0.02031,
            0.02034,
            0.02038,
            0.02039,
            0.0204,
            0.02043,
            0.02044,
            0.02048,
            0.0205,
            0.0205,
            0.02052,
            0.02056,
            0.0206,
            0.02062,
            0.02069,
            0.0207,
            0.02075,
            0.0208,
            0.02081,
            0.02088,
            0.0209,
            0.02094,
            0.021,
            0.021,
            0.02107,
            0.02111,
            0.02113,
            0.0212,
            0.02121,
            0.02126,
            0.02131,
            0.02133,
            0.02139,
            0.02142,
            0.02146,
            0.02153,
            0.02153,
            0.02159,
            0.02163,
            0.02166,
            0.02173,
            0.02174,
            0.0218,
            0.02185,
            0.02186,
            0.02193,
            0.02196,
            0.022,
            0.02207,
            0.02207,
            0.02214,
            0.02218,
            0.02221,
            0.02228,
            0.02229,
            0.02235,
            0.0224,
            0.02242,
            0.02249,
            0.02252,
            0.02256,
            0.02263,
            0.02263,
            0.0227,
            0.02275,
            0.02278,
            0.02285,
            0.02286,
            0.02292,
            0.02298,
            0.023,
            0.02307,
            0.0231,
            0.02314,
            0.02322,
            0.02322,
            0.02329,
            0.02334,
            0.02337,
            0.02344,
            0.02346,
            0.02352,
            0.02358,
            0.0236,
            0.02367,
            0.0237,
            0.02375,
            0.02382,
            0.02383,
            0.0239,
            0.02395,
            0.02398,
            0.02406,
            0.02407,
            0.02414,
            0.0242,
            0.02422,
            0.0243,
            0.02433,
            0.02438,
            0.02446,
            0.02446,
            0.02454,
            0.02458,
            0.02462,
            0.0247,
            0.02472,
            0.02478,
            0.02485,
            0.02487,
            0.02495,
            0.02498,
            0.02503,
            0.02511,
            0.02512,
            0.0252,
            0.02525,
            0.02529,
            0.02537,
            0.02538,
            0.02546,
            0.02552,
            0.02554,
            0.02563,
            0.02566,
            0.02572,
            0.0258,
            0.0258,
            0.02589,
            0.02594,
            0.02598,
            0.02607,
            0.02608,
            0.02616,
            0.02622,
            0.02625,
            0.02633,
            0.02636,
            0.02643,
            0.02651,
            0.02652,
            0.02661,
            0.02666,
            0.0267,
            0.0268,
            0.02695,
            0.02707,
            0.0271,
            0.02716,
            0.02725,
            0.02726,
            0.02735,
            0.0274,
            0.02745,
            0.02755,
            0.02756,
            0.02764,
            0.02771,
            0.02774,
            0.02784,
            0.02787,
            0.02794,
            0.02803,
            0.02803,
            0.02813,
            0.02819,
            0.02823,
            0.02833,
            0.02835,
            0.02844,
            0.02851,
            0.02854,
            0.02864,
            0.02867,
            0.02874,
            0.02883,
            0.02884,
            0.02895,
            0.029,
            0.02905,
            0.02916,
            0.02917,
            0.02926,
            0.02934,
            0.02937,
            0.02947,
            0.02951,
            0.02958,
            0.02968,
            0.02969,
            0.0298,
            0.02985,
            0.0299,
            0.03001,
            0.03003,
            0.03012,
            0.0302,
            0.03023,
            0.03035,
            0.03038,
            0.03046,
            0.03056,
            0.03057,
            0.03068,
            0.03074,
            0.0308,
            0.03091,
            0.03092,
            0.03103,
            0.03111,
            0.03114,
            0.03126,
            0.03129,
            0.03137,
            0.03148,
            0.03149,
            0.03161,
            0.03167,
            0.03173,
            0.03185,
            0.03186,
            0.03197,
            0.03205,
            0.03209,
            0.03221,
            0.03225,
            0.03233,
            0.03244,
            0.03246,
            0.03258,
            0.03264,
            0.0327,
            0.03283,
            0.03284,
            0.03296,
            0.03304,
            0.03308,
            0.03321,
            0.03324,
            0.03334,
            0.03345,
            0.03347,
            0.03359,
            0.03366,
            0.03373,
            0.03386,
            0.03386,
            0.03399,
            0.03408,
            0.03412,
            0.03425,
            0.03429,
            0.0345,
            0.03472,
            0.03479,
            0.03493,
            0.03494,
            0.03507,
            0.03516,
            0.03521,
            0.03535,
            0.03538,
            0.03549,
            0.03561,
            0.03563,
            0.03577,
            0.03584,
            0.03592,
            0.03606,
            0.03607,
            0.0362,
            0.0363,
            0.03635,
            0.0365,
            0.03653,
            0.03664,
            0.03677,
            0.03679,
            0.03694,
            0.03701,
            0.03709,
            0.03724,
            0.03725,
            0.03739,
            0.03749,
            0.03755,
            0.0377,
            0.03774,
            0.03786,
            0.03799,
            0.03801,
            0.03817,
            0.03824,
            0.03833,
            0.03849,
            0.03849,
            0.03865,
            0.03875,
            0.03881,
            0.03897,
            0.03901,
            0.03913,
            0.03927,
            0.03929,
            0.03946,
            0.03953,
            0.03962,
            0.03979,
            0.0398,
            0.03996,
            0.04007,
            0.04013,
            0.0403,
            0.04034,
            0.04047,
            0.04061,
            0.04064,
            0.04081,
            0.04089,
            0.04099,
            0.04116,
            0.04117,
            0.04134,
            0.04145,
            0.04152,
            0.0417,
            0.04174,
            0.04188,
            0.04203,
            0.04206,
            0.04224,
            0.04232,
            0.04243,
            0.04261,
            0.04261,
            0.0428,
            0.04291,
            0.04298,
            0.04317,
            0.04321,
            0.04336,
            0.04352,
            0.04355,
            0.04375,
            0.04382,
            0.04394,
            0.04413,
            0.04414,
            0.04433,
            0.04445,
            0.04453,
            0.04473,
            0.04477,
            0.04493,
            0.04509,
            0.04513,
            0.04533,
            0.04541,
            0.04553,
            0.04574,
            0.04574,
            0.04595,
            0.04607,
            0.04616,
            0.04637,
            0.04641,
            0.04658,
            0.04675,
            0.04679,
            0.047,
            0.04709,
            0.04722,
            0.04743,
            0.04744,
            0.04765,
            0.04778,
            0.04787,
            0.0481,
            0.04814,
            0.04832,
            0.0485,
            0.04854,
            0.04877,
            0.04886,
            0.049,
            0.04922,
            0.04923,
            0.04946,
            0.04959,
            0.04969,
            0.04993,
            0.04997,
            0.05016,
            0.05035,
            0.0504,
            0.05064,
            0.05073,
            0.05088,
            0.05112,
            0.05112,
            0.05137,
            0.05151,
            0.05161,
            0.05186,
            0.05191,
            0.05211,
            0.05231,
            0.05236,
            0.05262,
            0.05271,
            0.05287,
            0.05312,
            0.05313,
            0.05339,
            0.05354,
            0.05365,
            0.05391,
            0.05396,
            0.05418,
            0.05438,
            0.05444,
            0.05471,
            0.05481,
            0.05498,
            0.05525,
            0.05526,
            0.05553,
            0.05569,
            0.05581,
            0.05609,
            0.05613,
            0.05637,
            0.05658,
            0.05665,
            0.05694,
            0.05704,
            0.05723,
            0.0575,
            0.05751,
            0.05781,
            0.05797,
            0.0581,
            0.0584,
            0.05844,
            0.0587,
            0.05892,
            0.059,
            0.0593,
            0.05941,
            0.05961,
            0.0599,
            0.05991,
            0.06022,
            0.0604,
            0.06054,
            0.06085,
            0.0609,
            0.06117,
            0.06141,
            0.06149,
            0.06181,
            0.06193,
            0.06214,
            0.06245,
            0.06247,
            0.06298,
            0.06351,
            0.06406,
            0.06461,
            0.06516,
            0.06573,
            0.0663,
            0.06688,
            0.06746,
            0.06806,
            0.06866,
            0.06927,
            0.06989,
            0.07052,
            0.07115,
            0.0718,
            0.07245,
            0.07311,
            0.07378,
            0.07446,
            0.07515,
            0.07585,
            0.07656,
            0.07728,
            0.07801,
            0.07875,
            0.0795,
            0.08026,
            0.08103,
            0.08423,
            0.08506,
            0.0859,
            0.08676,
            0.08763,
            0.08851,
            0.0894,
            0.09031
          ],
          [
            167.9,
            83.77,
            62.88,
            56.5,
            47.13,
            38.37,
            15.26,
            21.69,
            26.11,
            14.93,
            15.98,
            23.93,
            62.03,
            61.97,
            34.36,
            32.28,
            28.79,
            27.45,
            27.97,
            85.19,
            31.58,
            43.39,
            34.19,
            36.6,
            519.1,
            668.6,
            31.01,
            34.48,
            50.87,
            58.37,
            66.85,
            65.27,
            54.56,
            79.27,
            78.12,
            76.16,
            54.03,
            124.0,
            145.6,
            65.34,
            55.95,
            69.3,
            66.7,
            54.46,
            83.02,
            99.7,
            91.27,
            55.65,
            28.98,
            28.54,
            42.74,
            40.71,
            27.39,
            35.97,
            48.52,
            30.08,
            31.58,
            34.47,
            29.2,
            20.87,
            19.9,
            35.9,
            37.99,
            28.59,
            16.76,
            19.37,
            23.68,
            15.71,
            27.31,
            24.0,
            24.29,
            28.78,
            34.44,
            34.02,
            28.3,
            25.3,
            25.01,
            28.58,
            24.02,
            24.33,
            24.67,
            30.13,
            22.46,
            38.59,
            18.2,
            15.06,
            25.03,
            13.16,
            14.32,
            15.79,
            21.17,
            17.82,
            25.83,
            38.55,
            30.92,
            16.09,
            15.99,
            20.53,
            27.29,
            28.3,
            26.63,
            32.39,
            25.71,
            19.58,
            17.8,
            13.94,
            16.7,
            20.62,
            19.67,
            20.4,
            25.44,
            21.5,
            27.12,
            18.13,
            25.31,
            13.33,
            15.94,
            35.19,
            22.07,
            27.58,
            32.41,
            37.97,
            32.18,
            23.14,
            15.29,
            22.46,
            21.96,
            32.26,
            32.27,
            28.11,
            21.49,
            20.24,
            12.15,
            11.47,
            19.59,
            18.67,
            17.45,
            31.3,
            20.19,
            14.66,
            12.2,
            26.96,
            26.4,
            26.05,
            11.96,
            14.13,
            23.97,
            40.63,
            39.3,
            23.49,
            16.45,
            15.86,
            27.27,
            30.05,
            39.15,
            40.37,
            33.76,
            46.34,
            52.96,
            69.54,
            74.17,
            95.74,
            106.6,
            104.1,
            93.83,
            101.9,
            93.29,
            90.08,
            78.3,
            89.69,
            87.61,
            67.4,
            57.79,
            31.64,
            35.59,
            25.19,
            23.33,
            22.39,
            25.81,
            41.99,
            28.0,
            26.16,
            15.91,
            19.25,
            28.34,
            30.99,
            32.51,
            30.58,
            38.48,
            42.59,
            41.69,
            45.94,
            63.34,
            65.39,
            64.95,
            58.72,
            61.11,
            69.58,
            77.3,
            73.64,
            68.97,
            64.93,
            76.61,
            87.91,
            107.0,
            111.0,
            110.0,
            90.2,
            106.3,
            108.7,
            117.8,
            114.1,
            110.8,
            116.3,
            118.3,
            123.7,
            118.2,
            111.0,
            114.3,
            119.6,
            111.3,
            109.2,
            96.15,
            99.0,
            81.86,
            73.05,
            73.44,
            68.34,
            69.4,
            54.43,
            66.23,
            65.63,
            63.66,
            56.95,
            44.6,
            43.92,
            38.37,
            47.32,
            42.16,
            33.89,
            33.3,
            32.24,
            41.98,
            40.76,
            38.43,
            36.53,
            33.94,
            46.12,
            46.56,
            47.94,
            34.18,
            30.19,
            36.64,
            50.14,
            56.43,
            64.48,
            69.95,
            69.71,
            59.42,
            61.79,
            60.89,
            58.79,
            51.03,
            48.54,
            47.03,
            41.65,
            38.57,
            33.86,
            23.07,
            19.18,
            16.37,
            21.59,
            19.93,
            16.97,
            12.83,
            250.0,
            16.43,
            9.675,
            10.08,
            94.02,
            71.32,
            56.5,
            11.96,
            38.67,
            26.0,
            20.44,
            18.78,
            18.33,
            17.62,
            17.29,
            20.35,
            19.54,
            9.85,
            2.7,
            21.92,
            5.882,
            3.218,
            18.15,
            34.08,
            9.29,
            34.65,
            26.62,
            180.5,
            124.7,
            118.4,
            221.9,
            21.48,
            21.7,
            30.62,
            24.56,
            16.38,
            24.7,
            27.32,
            10.97,
            14.7,
            17.24,
            22.23,
            12.95,
            11.87,
            20.31,
            32.91,
            18.73,
            14.99,
            21.58,
            35.68,
            31.2,
            33.96,
            17.56,
            11.36,
            18.72,
            22.67,
            31.38,
            9.441,
            22.12,
            14.64,
            19.89,
            35.21,
            18.04,
            26.39,
            21.89,
            28.98,
            11.02,
            12.9,
            17.52,
            10.51,
            14.59,
            12.46,
            13.1,
            17.91,
            18.4,
            15.04,
            20.14,
            19.12,
            16.19,
            17.76,
            23.1,
            21.87,
            20.52,
            11.87,
            28.83,
            11.96,
            16.23,
            21.73,
            21.5,
            24.18,
            30.08,
            29.13,
            26.88,
            32.8,
            30.8,
            33.64,
            25.6,
            33.01,
            25.06,
            36.52,
            52.58,
            20.98,
            63.04,
            67.42,
            17.71,
            62.76,
            29.23,
            68.57,
            63.43,
            36.26,
            70.62,
            42.23,
            79.31,
            96.65,
            40.26,
            98.69,
            93.72,
            34.74,
            84.47,
            42.59,
            77.57,
            67.97,
            47.84,
            67.68,
            63.71,
            42.08,
            63.64,
            34.72,
            62.34,
            57.01,
            15.89,
            50.38,
            26.82,
            46.84,
            40.98,
            11.51,
            38.19,
            31.78,
            19.48,
            33.54,
            16.09,
            37.82,
            42.32,
            30.12,
            39.92,
            19.98,
            36.19,
            32.82,
            32.77,
            30.44,
            24.93,
            28.49,
            33.65,
            8.599,
            31.33,
            19.54,
            18.72,
            12.06,
            15.96,
            15.1,
            23.21,
            21.79,
            18.29,
            25.2,
            27.59,
            9.077,
            28.5,
            17.93,
            12.8,
            16.92,
            15.67,
            16.36,
            20.0,
            16.24,
            21.34,
            24.02,
            11.7,
            17.14,
            16.61,
            15.17,
            8.056,
            19.37,
            19.22,
            12.89,
            25.03,
            23.77,
            22.78,
            12.96,
            20.11,
            12.21,
            12.29,
            15.04,
            8.437,
            8.363,
            13.63,
            11.52,
            11.37,
            12.75,
            19.44,
            20.49,
            16.44,
            8.312,
            6.643,
            13.48,
            10.96,
            18.76,
            24.6,
            17.99,
            23.33,
            24.71,
            23.87,
            17.44,
            22.95,
            17.01,
            13.51,
            17.6,
            10.68,
            7.894,
            12.74,
            10.26,
            12.89,
            17.34,
            20.79,
            14.18,
            18.1,
            25.72,
            15.73,
            9.814,
            24.76,
            5.837,
            16.2,
            7.808,
            15.73,
            13.79,
            17.97,
            15.34,
            14.3,
            7.85,
            17.32,
            19.56,
            20.34,
            13.74,
            30.58,
            16.82,
            15.24,
            29.84,
            21.77,
            28.47,
            17.13,
            21.69,
            23.3,
            26.1,
            32.91,
            29.99,
            36.48,
            36.63,
            42.33,
            46.82,
            42.74,
            52.8,
            40.02,
            55.48,
            54.73,
            33.55,
            56.5,
            39.44,
            57.42,
            61.35,
            41.12,
            56.17,
            51.3,
            51.86,
            44.99,
            48.44,
            44.51,
            46.19,
            48.13,
            51.51,
            51.86,
            38.99,
            50.68,
            30.88,
            48.21,
            44.51,
            31.77,
            37.11,
            28.64,
            34.2,
            33.82,
            31.71,
            35.6,
            29.24,
            28.67,
            24.46,
            24.69,
            22.54,
            27.2,
            18.25,
            20.06,
            9.607,
            18.5,
            12.36,
            10.91,
            12.13,
            9.39,
            16.45,
            12.98,
            21.17,
            14.89,
            17.2,
            18.68,
            20.06,
            13.97,
            20.71,
            17.19,
            14.59,
            11.53,
            14.02,
            16.74,
            16.76,
            14.08,
            21.99,
            16.63,
            13.58,
            19.8,
            18.71,
            17.19,
            17.36,
            14.17,
            15.29,
            10.47,
            8.718,
            12.22,
            8.287,
            12.68,
            16.89,
            15.01,
            11.91,
            20.12,
            11.27,
            9.321,
            15.36,
            9.185,
            13.1,
            4.901,
            8.093,
            16.09,
            126.2,
            12.99,
            70.45,
            17.42,
            26.57,
            85.3,
            12.67,
            32.55,
            29.41,
            17.9,
            10.94,
            12.91,
            20.66,
            27.45,
            14.56,
            26.61,
            17.34,
            26.34,
            28.72,
            17.62,
            20.48,
            20.12,
            32.93,
            22.49,
            26.65,
            20.5,
            31.87,
            20.13,
            27.93,
            40.21,
            17.18,
            22.19,
            26.81,
            41.61,
            32.57,
            39.24,
            46.41,
            18.19,
            46.78,
            36.81,
            49.55,
            30.13,
            27.5,
            82.86,
            25.13,
            21.93,
            20.32,
            27.09,
            14.22,
            21.79,
            23.81,
            13.75,
            13.0,
            32.3,
            18.81,
            11.97,
            25.58,
            22.91,
            15.65,
            22.49,
            8.163,
            11.42,
            15.88,
            26.28,
            9.195,
            9.538,
            12.38,
            12.31,
            21.44,
            18.97,
            9.127,
            6.816,
            18.57,
            19.19,
            9.426,
            10.73,
            6.788,
            12.81,
            6.209,
            10.7,
            6.165,
            14.5,
            12.88,
            7.448,
            8.181,
            7.132,
            7.81,
            11.02,
            8.3,
            7.919,
            10.81,
            14.21,
            13.74,
            22.04,
            14.94,
            12.09,
            6.765,
            18.78,
            12.4,
            11.5,
            15.52,
            16.86,
            7.38,
            16.26,
            8.016,
            16.48,
            21.87,
            5.971,
            26.15,
            17.5,
            23.01,
            5.97,
            15.94,
            6.768,
            18.18,
            21.04,
            4.98,
            26.96,
            24.58,
            10.2,
            21.64,
            25.28,
            10.55,
            18.39,
            20.42,
            25.13,
            15.33,
            26.51,
            10.67,
            19.86,
            31.15,
            13.63,
            29.35,
            23.38,
            22.75,
            10.78,
            27.29,
            8.954,
            27.53,
            27.57,
            28.54,
            9.114,
            24.03,
            8.598,
            32.75,
            19.92,
            9.024,
            22.18,
            30.45,
            28.74,
            11.11,
            38.22,
            13.7,
            42.52,
            33.52,
            18.91,
            50.59,
            59.13,
            37.34,
            19.72,
            63.29,
            24.61,
            70.62,
            47.0,
            68.9,
            28.91,
            73.04,
            34.48,
            63.86,
            44.67,
            38.03,
            64.46,
            43.43,
            61.04,
            44.53,
            61.47,
            41.97,
            60.69,
            37.4,
            60.99,
            47.01,
            54.73,
            35.84,
            48.46,
            48.49,
            51.03,
            31.58,
            49.06,
            44.47,
            26.18,
            47.39,
            23.65,
            42.77,
            39.39,
            24.67,
            32.49,
            27.27,
            32.42,
            26.78,
            29.52,
            24.44,
            23.09,
            26.34,
            22.52,
            28.06,
            22.5,
            16.94,
            25.94,
            20.98,
            29.02,
            15.82,
            21.45,
            25.16,
            18.99,
            25.19,
            28.85,
            24.13,
            29.88,
            23.73,
            23.03,
            34.42,
            23.43,
            31.88,
            28.12,
            29.21,
            35.3,
            32.97,
            32.87,
            38.34,
            35.4,
            47.09,
            37.84,
            41.57,
            46.42,
            43.37,
            41.56,
            42.32,
            37.94,
            33.29,
            38.3,
            38.74,
            26.27,
            39.92,
            24.39,
            36.96,
            35.41,
            20.55,
            33.14,
            23.36,
            29.78,
            23.39,
            24.85,
            23.51,
            25.45,
            25.19,
            25.1,
            18.95,
            20.34,
            17.81,
            13.54,
            14.78,
            15.29,
            16.56,
            18.91,
            18.04,
            19.03,
            15.92,
            18.38,
            10.81,
            16.31,
            12.8,
            14.34,
            22.48,
            14.12,
            23.62,
            16.7,
            17.83,
            23.81,
            16.04,
            13.43,
            17.2,
            10.43,
            14.81,
            14.68,
            11.63,
            16.65,
            15.16,
            17.46,
            11.77,
            11.02,
            22.5,
            8.114,
            8.951,
            19.43,
            11.19,
            18.61,
            10.87,
            10.94,
            15.67,
            11.19,
            16.28,
            10.24,
            6.983,
            20.56,
            4.249,
            5.017,
            19.4,
            7.428,
            17.43,
            8.702,
            7.528,
            15.39,
            7.611,
            15.38,
            6.107,
            6.805,
            17.52,
            6.966,
            19.38,
            21.74,
            11.34,
            24.87,
            9.635,
            24.06,
            10.25,
            9.517,
            21.91,
            8.87,
            9.613,
            22.79,
            13.02,
            22.04,
            12.38,
            10.67,
            26.7,
            8.201,
            27.58,
            11.67,
            10.94,
            30.83,
            10.88,
            13.05,
            28.01,
            17.81,
            25.4,
            21.36,
            24.22,
            23.9,
            26.24,
            23.87,
            24.84,
            24.33,
            24.08,
            24.36,
            25.4,
            24.5,
            22.17,
            23.18,
            14.87,
            14.58,
            18.02,
            13.66,
            11.31,
            17.56,
            14.7,
            14.21,
            15.7,
            14.16,
            18.17,
            14.84,
            20.17,
            12.74,
            12.34,
            18.66,
            12.74,
            18.15,
            11.58,
            11.5,
            18.43,
            11.65,
            11.06,
            16.38,
            9.915,
            18.5,
            9.27,
            10.52,
            20.01,
            11.17,
            21.87,
            9.624,
            9.528,
            20.78,
            11.14,
            13.48,
            19.4,
            13.45,
            21.18,
            13.3,
            14.19,
            24.37,
            17.77,
            30.7,
            18.75,
            17.47,
            31.11,
            15.4,
            14.6,
            34.86,
            19.46,
            33.2,
            20.81,
            26.57,
            39.41,
            26.86,
            37.46,
            30.06,
            32.53,
            36.53,
            32.54,
            32.98,
            35.44,
            33.52,
            33.69,
            33.15,
            32.95,
            37.04,
            36.67,
            30.39,
            25.49,
            23.54,
            27.27,
            20.47,
            24.97,
            19.56,
            17.5,
            28.39,
            14.45,
            30.55,
            15.08,
            14.95,
            31.81,
            17.33,
            20.44,
            27.95,
            21.48,
            26.93,
            22.85,
            22.75,
            26.57,
            25.83,
            32.71,
            28.06,
            31.83,
            33.02,
            32.77,
            31.0,
            32.0,
            27.84,
            27.48,
            26.81,
            25.2,
            25.12,
            24.42,
            25.0,
            21.1,
            23.34,
            25.65,
            21.94,
            27.27,
            20.92,
            17.86,
            29.52,
            19.21,
            21.95,
            29.18,
            23.21,
            31.04,
            23.61,
            23.31,
            33.31,
            24.41,
            23.6,
            33.64,
            25.43,
            28.56,
            28.12,
            30.21,
            24.93,
            28.01,
            25.64,
            26.05,
            24.91,
            27.03,
            25.37,
            22.17,
            26.27,
            19.44,
            24.55,
            18.74,
            17.66,
            23.84,
            15.17,
            21.75,
            13.58,
            12.28,
            24.23,
            13.94,
            26.33,
            14.76,
            17.75,
            31.13,
            19.95,
            20.93,
            30.81,
            21.69,
            32.3,
            19.9,
            21.7,
            30.99,
            21.59,
            22.21,
            29.94,
            20.98,
            28.0,
            19.76,
            20.57,
            26.85,
            19.55,
            26.56,
            21.33,
            21.85,
            26.37,
            24.37,
            25.83,
            23.08,
            21.68,
            24.62,
            18.02,
            18.29,
            24.39,
            18.64,
            23.11,
            18.77,
            18.87,
            26.64,
            19.53,
            28.92,
            19.81,
            18.85,
            32.48,
            19.42,
            20.59,
            34.59,
            23.19,
            32.52,
            24.46,
            26.35,
            30.53,
            26.64,
            28.78,
            26.97,
            27.26,
            32.06,
            26.27,
            24.11,
            31.35,
            22.92,
            29.16,
            21.15,
            21.21,
            27.99,
            21.69,
            23.52,
            30.62,
            25.64,
            33.57,
            26.04,
            28.57,
            34.26,
            30.92,
            35.54,
            35.17,
            38.94,
            33.7,
            41.65,
            32.36,
            41.75,
            41.66,
            32.11,
            40.42,
            40.07,
            32.31,
            37.7,
            33.06,
            38.29,
            35.29,
            32.5,
            35.28,
            31.7,
            32.28,
            33.84,
            31.4,
            33.15,
            33.86,
            29.64,
            35.42,
            30.6,
            35.83,
            37.03,
            29.4,
            34.81,
            29.57,
            38.22,
            40.29,
            30.36,
            44.82,
            43.57,
            32.53,
            43.89,
            33.74,
            42.36,
            42.88,
            34.42,
            41.92,
            35.49,
            46.33,
            51.39,
            35.92,
            57.23,
            56.73,
            36.19,
            52.81,
            36.43,
            45.39,
            46.39,
            35.89,
            44.89,
            36.0,
            40.61,
            34.24,
            33.54,
            31.74,
            31.86,
            31.5,
            31.42,
            31.5,
            32.41,
            32.89,
            32.34,
            32.34,
            31.54,
            31.15,
            29.72,
            28.84,
            27.65,
            27.7,
            27.88,
            28.55,
            29.06,
            30.18,
            30.54,
            30.59,
            30.06,
            31.12,
            31.53,
            32.81,
            33.45,
            34.53,
            37.73,
            32.99,
            33.68,
            32.22,
            44.55,
            44.79,
            22.92,
            21.73
          ],
          [
            92.2,
            33.62,
            20.32,
            14.69,
            11.67,
            10.76,
            11.11,
            8.519,
            5.501,
            0.8259,
            0.8729,
            0.8763,
            2.208,
            1.755,
            1.62,
            2.228,
            3.166,
            5.609,
            20.44,
            40.17,
            28.64,
            25.69,
            23.9,
            20.88,
            118.9,
            210.6,
            24.12,
            27.48,
            30.56,
            32.2,
            31.74,
            29.51,
            44.8,
            44.7,
            43.34,
            42.6,
            48.59,
            53.84,
            56.43,
            52.3,
            50.35,
            50.98,
            48.35,
            48.63,
            42.8,
            45.23,
            44.12,
            41.89,
            27.97,
            25.72,
            26.16,
            26.18,
            25.32,
            23.47,
            22.39,
            20.33,
            20.66,
            20.05,
            18.47,
            17.77,
            17.38,
            16.62,
            16.5,
            16.17,
            15.46,
            15.75,
            15.5,
            15.98,
            15.4,
            15.85,
            15.45,
            15.12,
            14.54,
            14.27,
            14.4,
            13.88,
            13.91,
            13.73,
            14.1,
            13.85,
            13.8,
            13.58,
            13.4,
            13.6,
            13.36,
            12.72,
            12.44,
            12.3,
            12.76,
            12.43,
            12.09,
            12.24,
            12.23,
            12.08,
            12.29,
            12.29,
            12.23,
            11.89,
            11.99,
            12.27,
            12.17,
            11.98,
            11.81,
            11.79,
            12.16,
            12.25,
            11.79,
            11.81,
            11.75,
            11.4,
            11.26,
            11.41,
            11.79,
            11.85,
            11.82,
            11.59,
            11.59,
            11.71,
            11.49,
            11.28,
            11.36,
            11.49,
            11.62,
            11.54,
            11.39,
            11.33,
            11.18,
            11.32,
            11.31,
            11.27,
            11.27,
            11.35,
            11.33,
            11.31,
            11.18,
            11.31,
            11.34,
            11.41,
            11.6,
            11.61,
            11.67,
            11.89,
            11.96,
            12.05,
            12.21,
            12.03,
            12.11,
            12.04,
            11.93,
            11.88,
            11.93,
            12.71,
            12.57,
            12.61,
            12.72,
            13.06,
            13.16,
            13.29,
            13.26,
            13.55,
            13.98,
            14.76,
            15.22,
            15.72,
            16.01,
            16.32,
            15.52,
            14.88,
            14.6,
            14.68,
            14.73,
            14.54,
            14.54,
            14.27,
            14.11,
            13.77,
            13.88,
            15.18,
            14.79,
            14.16,
            14.35,
            14.61,
            14.98,
            14.59,
            14.18,
            13.81,
            13.39,
            13.46,
            13.3,
            12.64,
            12.46,
            12.34,
            12.66,
            12.59,
            12.47,
            12.61,
            12.31,
            12.3,
            12.08,
            11.85,
            11.57,
            11.3,
            11.49,
            11.7,
            11.88,
            11.78,
            11.99,
            11.56,
            11.67,
            11.17,
            11.12,
            11.08,
            11.01,
            11.35,
            11.14,
            11.12,
            10.69,
            10.51,
            10.3,
            10.37,
            10.13,
            10.05,
            9.725,
            9.7,
            9.707,
            9.681,
            9.671,
            9.398,
            9.217,
            9.014,
            9.126,
            9.141,
            9.115,
            8.916,
            8.932,
            8.76,
            8.583,
            8.392,
            8.416,
            8.616,
            8.605,
            8.694,
            8.419,
            8.368,
            8.173,
            8.294,
            8.499,
            8.621,
            8.629,
            8.484,
            8.569,
            8.66,
            8.708,
            8.696,
            8.898,
            9.05,
            9.125,
            8.99,
            9.033,
            9.178,
            9.214,
            9.168,
            8.863,
            8.961,
            8.908,
            9.032,
            8.845,
            8.742,
            8.712,
            8.656,
            8.691,
            8.656,
            8.657,
            8.618,
            8.644,
            197.0,
            8.773,
            8.647,
            8.634,
            61.84,
            30.5,
            20.63,
            8.953,
            16.08,
            14.72,
            9.047,
            14.96,
            8.944,
            12.15,
            8.789,
            8.862,
            1.242,
            8.834,
            0.7679,
            8.815,
            0.7336,
            0.8576,
            8.849,
            1.663,
            8.835,
            2.212,
            3.475,
            13.07,
            6.986,
            9.278,
            32.95,
            8.957,
            9.025,
            8.9,
            9.009,
            8.923,
            23.82,
            22.41,
            9.357,
            9.271,
            16.8,
            16.84,
            9.422,
            9.372,
            15.39,
            15.5,
            15.39,
            9.289,
            9.47,
            9.527,
            9.759,
            9.506,
            9.683,
            9.674,
            12.7,
            12.36,
            12.04,
            9.52,
            12.08,
            12.01,
            11.74,
            11.64,
            9.902,
            11.67,
            11.36,
            9.912,
            10.95,
            11.01,
            10.84,
            10.48,
            9.798,
            9.638,
            9.499,
            9.512,
            9.411,
            9.765,
            9.553,
            9.416,
            9.691,
            9.243,
            9.118,
            9.771,
            9.111,
            9.684,
            9.021,
            8.902,
            8.704,
            8.699,
            9.556,
            8.646,
            8.649,
            9.865,
            8.558,
            10.11,
            8.707,
            8.653,
            10.0,
            8.651,
            9.811,
            8.418,
            8.333,
            9.612,
            8.376,
            8.419,
            9.781,
            8.421,
            9.903,
            8.231,
            8.35,
            9.84,
            8.49,
            9.88,
            8.698,
            8.613,
            9.718,
            8.399,
            8.216,
            9.783,
            8.052,
            9.777,
            8.005,
            7.932,
            9.843,
            7.884,
            7.835,
            9.765,
            7.715,
            9.469,
            7.65,
            7.431,
            9.324,
            7.254,
            9.23,
            7.229,
            7.211,
            9.21,
            7.237,
            7.065,
            9.17,
            6.987,
            9.018,
            6.91,
            6.92,
            8.871,
            6.891,
            8.791,
            6.878,
            6.797,
            6.766,
            6.626,
            6.619,
            6.587,
            6.581,
            8.715,
            6.507,
            8.594,
            6.36,
            6.299,
            8.495,
            6.224,
            6.262,
            6.235,
            6.174,
            6.106,
            6.102,
            8.509,
            6.113,
            6.152,
            8.517,
            6.115,
            8.435,
            6.1,
            5.955,
            8.472,
            5.903,
            5.849,
            8.419,
            5.871,
            5.847,
            5.815,
            8.132,
            5.741,
            5.68,
            8.069,
            5.674,
            5.663,
            5.692,
            7.945,
            5.611,
            5.62,
            5.598,
            7.966,
            5.615,
            7.94,
            5.575,
            5.53,
            7.789,
            5.499,
            5.431,
            5.394,
            5.363,
            5.363,
            5.28,
            5.288,
            7.486,
            5.285,
            5.305,
            7.416,
            5.272,
            7.312,
            5.245,
            5.186,
            7.254,
            5.139,
            5.093,
            7.072,
            5.083,
            7.028,
            5.054,
            5.036,
            7.006,
            4.977,
            6.975,
            4.926,
            4.899,
            6.873,
            4.92,
            4.911,
            6.752,
            4.937,
            6.761,
            4.904,
            4.893,
            6.761,
            4.832,
            4.792,
            4.759,
            6.768,
            4.76,
            6.777,
            4.762,
            4.774,
            6.856,
            4.747,
            4.753,
            6.777,
            4.783,
            6.797,
            4.822,
            4.767,
            6.738,
            4.69,
            4.657,
            6.7,
            4.698,
            6.627,
            4.774,
            4.817,
            6.62,
            4.831,
            6.649,
            4.817,
            4.785,
            6.636,
            4.792,
            6.695,
            4.782,
            4.82,
            6.654,
            4.788,
            4.774,
            6.706,
            4.711,
            6.577,
            4.711,
            4.712,
            6.627,
            4.72,
            4.705,
            6.591,
            4.691,
            6.602,
            4.722,
            4.735,
            6.585,
            4.723,
            6.566,
            4.716,
            4.699,
            6.583,
            4.735,
            6.569,
            4.803,
            4.886,
            6.595,
            4.98,
            5.025,
            6.563,
            5.105,
            6.488,
            5.081,
            5.058,
            6.376,
            5.02,
            5.001,
            6.265,
            4.879,
            6.254,
            4.738,
            4.624,
            6.246,
            4.569,
            6.314,
            4.484,
            4.456,
            6.253,
            4.44,
            6.267,
            4.486,
            4.482,
            6.293,
            4.494,
            4.504,
            6.352,
            4.585,
            6.346,
            4.653,
            4.72,
            6.325,
            4.731,
            6.326,
            4.735,
            4.74,
            6.177,
            4.706,
            4.658,
            6.061,
            4.607,
            5.958,
            4.552,
            4.543,
            6.035,
            4.492,
            6.057,
            4.45,
            4.382,
            6.058,
            119.0,
            4.324,
            41.07,
            4.326,
            5.999,
            23.68,
            4.323,
            14.84,
            5.936,
            11.01,
            4.328,
            9.532,
            4.303,
            5.874,
            9.202,
            4.275,
            7.353,
            5.826,
            4.302,
            5.302,
            4.326,
            2.986,
            5.79,
            1.112,
            4.341,
            0.8853,
            4.353,
            0.8762,
            5.718,
            4.374,
            1.24,
            2.42,
            5.657,
            4.395,
            3.284,
            4.36,
            3.749,
            5.62,
            3.791,
            4.311,
            5.149,
            4.252,
            5.631,
            14.21,
            4.209,
            5.62,
            4.227,
            15.66,
            4.234,
            5.634,
            9.623,
            7.675,
            4.232,
            7.008,
            5.563,
            4.174,
            6.512,
            6.401,
            4.132,
            5.543,
            6.282,
            4.11,
            6.301,
            5.438,
            4.084,
            6.294,
            6.346,
            4.089,
            5.435,
            4.084,
            6.415,
            6.432,
            4.069,
            5.448,
            6.371,
            4.061,
            6.335,
            5.455,
            4.053,
            6.266,
            4.047,
            5.431,
            6.104,
            4.007,
            6.043,
            3.989,
            5.361,
            6.042,
            6.053,
            3.979,
            5.313,
            6.073,
            3.987,
            6.052,
            6.023,
            3.969,
            5.236,
            6.03,
            3.964,
            6.014,
            5.163,
            6.008,
            3.956,
            6.008,
            3.952,
            5.125,
            5.981,
            3.931,
            5.969,
            5.87,
            5.101,
            3.916,
            5.834,
            3.889,
            5.768,
            5.068,
            3.867,
            5.779,
            5.734,
            3.853,
            5.027,
            5.725,
            3.831,
            5.698,
            5.032,
            5.706,
            3.855,
            5.727,
            3.823,
            5.095,
            5.711,
            3.829,
            5.766,
            5.097,
            5.768,
            3.789,
            5.758,
            3.799,
            5.695,
            5.054,
            5.675,
            3.754,
            5.744,
            3.766,
            4.984,
            5.784,
            3.756,
            5.783,
            5.025,
            5.74,
            3.8,
            5.716,
            3.796,
            5.792,
            5.049,
            3.779,
            5.853,
            5.924,
            5.043,
            3.773,
            5.888,
            3.763,
            5.943,
            4.998,
            5.972,
            3.785,
            6.016,
            3.801,
            5.991,
            5.01,
            3.805,
            5.953,
            4.994,
            5.891,
            3.801,
            5.828,
            3.771,
            5.809,
            4.95,
            5.848,
            3.8,
            5.813,
            4.915,
            3.814,
            5.767,
            3.834,
            4.936,
            3.822,
            3.81,
            5.029,
            3.826,
            5.082,
            3.831,
            3.893,
            5.09,
            3.924,
            5.011,
            3.955,
            3.977,
            4.966,
            4.004,
            4.054,
            4.918,
            4.047,
            4.912,
            4.054,
            4.012,
            4.84,
            4.003,
            4.802,
            3.964,
            3.938,
            4.729,
            3.905,
            3.887,
            4.693,
            3.877,
            4.641,
            3.846,
            3.822,
            4.635,
            3.798,
            4.648,
            3.792,
            3.782,
            4.631,
            3.764,
            3.764,
            4.618,
            3.761,
            4.596,
            3.751,
            3.735,
            4.602,
            3.724,
            4.541,
            3.741,
            3.76,
            4.498,
            3.76,
            3.742,
            4.445,
            3.684,
            4.423,
            3.637,
            3.592,
            4.365,
            3.542,
            4.312,
            3.54,
            3.522,
            4.285,
            3.528,
            3.501,
            4.27,
            3.467,
            4.263,
            3.458,
            3.427,
            4.202,
            3.431,
            4.151,
            3.406,
            3.39,
            4.104,
            3.375,
            3.381,
            4.085,
            3.383,
            4.074,
            3.362,
            3.334,
            4.04,
            3.332,
            4.027,
            3.327,
            3.302,
            3.984,
            3.272,
            3.253,
            3.952,
            3.265,
            3.925,
            3.257,
            3.247,
            3.905,
            3.231,
            3.897,
            3.219,
            3.205,
            3.878,
            3.177,
            3.161,
            3.845,
            3.15,
            3.832,
            3.151,
            3.14,
            3.823,
            3.129,
            3.794,
            3.113,
            3.102,
            3.787,
            3.102,
            3.105,
            3.747,
            3.09,
            3.716,
            3.064,
            3.036,
            3.651,
            3.032,
            3.623,
            3.023,
            3.017,
            3.62,
            3.005,
            3.612,
            3.585,
            2.941,
            3.575,
            2.933,
            3.559,
            2.912,
            2.902,
            3.547,
            2.883,
            2.872,
            3.538,
            2.855,
            3.524,
            2.845,
            2.841,
            3.526,
            2.838,
            3.496,
            2.835,
            2.833,
            3.477,
            2.829,
            2.833,
            3.482,
            2.845,
            3.5,
            2.856,
            2.864,
            3.505,
            2.856,
            3.474,
            2.857,
            2.862,
            3.424,
            2.853,
            2.829,
            3.412,
            2.8,
            3.37,
            2.769,
            2.737,
            3.355,
            2.711,
            3.345,
            2.695,
            2.676,
            3.331,
            2.665,
            2.648,
            3.327,
            2.657,
            3.301,
            2.639,
            2.628,
            3.296,
            2.602,
            3.261,
            2.599,
            2.588,
            3.22,
            2.585,
            2.572,
            3.18,
            2.573,
            3.178,
            2.572,
            2.553,
            3.17,
            2.541,
            3.171,
            2.523,
            2.527,
            3.15,
            2.521,
            2.518,
            3.139,
            2.505,
            3.139,
            2.489,
            2.472,
            3.14,
            2.468,
            3.136,
            2.459,
            2.446,
            3.115,
            2.44,
            2.45,
            3.105,
            2.45,
            3.101,
            2.446,
            2.434,
            3.11,
            2.431,
            3.089,
            2.426,
            2.423,
            3.085,
            2.417,
            3.05,
            2.409,
            2.393,
            3.044,
            2.387,
            2.371,
            3.014,
            3.003,
            2.988,
            2.329,
            2.311,
            2.983,
            2.287,
            2.985,
            2.273,
            2.262,
            2.964,
            2.265,
            2.964,
            2.25,
            2.239,
            2.952,
            2.228,
            2.215,
            2.954,
            2.207,
            2.927,
            2.199,
            2.207,
            2.899,
            2.205,
            2.89,
            2.199,
            2.181,
            2.883,
            2.163,
            2.148,
            2.878,
            2.14,
            2.872,
            2.13,
            2.121,
            2.862,
            2.115,
            2.858,
            2.105,
            2.097,
            2.841,
            2.09,
            2.834,
            2.091,
            2.09,
            2.828,
            2.08,
            2.072,
            2.802,
            2.055,
            2.783,
            2.034,
            2.013,
            2.751,
            1.999,
            1.986,
            2.732,
            1.972,
            2.692,
            1.962,
            1.954,
            2.666,
            1.944,
            2.642,
            1.928,
            1.904,
            2.623,
            1.883,
            1.861,
            2.603,
            1.849,
            2.596,
            1.834,
            1.825,
            2.583,
            1.804,
            2.566,
            1.791,
            1.771,
            2.531,
            1.76,
            2.505,
            1.748,
            1.734,
            2.491,
            1.719,
            1.708,
            2.477,
            1.696,
            2.459,
            1.69,
            1.672,
            2.44,
            1.661,
            1.646,
            2.423,
            1.634,
            2.407,
            1.622,
            1.607,
            2.387,
            1.598,
            2.365,
            1.586,
            1.576,
            2.339,
            1.566,
            2.321,
            1.555,
            1.543,
            2.3,
            1.531,
            1.516,
            2.288,
            1.503,
            2.256,
            1.487,
            1.48,
            2.24,
            1.471,
            2.217,
            1.464,
            1.455,
            2.207,
            1.446,
            1.443,
            2.178,
            1.439,
            2.152,
            1.437,
            1.429,
            2.117,
            1.419,
            2.094,
            1.405,
            1.391,
            2.069,
            1.377,
            1.366,
            2.047,
            1.359,
            2.022,
            1.357,
            1.357,
            1.997,
            1.359,
            1.365,
            1.97,
            1.371,
            1.935,
            1.385,
            1.393,
            1.897,
            1.401,
            1.859,
            1.409,
            1.413,
            1.819,
            1.417,
            1.781,
            1.418,
            1.425,
            1.745,
            1.431,
            1.436,
            1.708,
            1.445,
            1.668,
            1.455,
            1.473,
            1.629,
            1.493,
            1.598,
            1.522,
            1.554,
            1.565,
            1.59,
            1.634,
            1.53,
            1.686,
            1.497,
            1.743,
            1.804,
            1.463,
            1.87,
            1.435,
            1.952,
            2.05,
            1.403,
            2.165,
            2.3,
            1.377,
            2.45,
            1.345,
            2.617,
            2.83,
            1.314,
            3.092,
            1.283,
            3.408,
            3.76,
            1.255,
            4.196,
            4.749,
            1.224,
            5.437,
            1.19,
            6.274,
            7.364,
            1.155,
            8.829,
            1.119,
            11.26,
            1.087,
            1.054,
            1.022,
            0.9901,
            0.9605,
            0.9323,
            0.9028,
            0.8738,
            0.8456,
            0.8195,
            0.7957,
            0.7748,
            0.7578,
            0.742,
            0.73,
            0.7193,
            0.7131,
            0.7103,
            0.7125,
            0.7193,
            0.7321,
            0.7527,
            0.7819,
            0.8212,
            0.8733,
            0.9438,
            1.037,
            1.163,
            1.33,
            2.811,
            3.559,
            4.537,
            5.79,
            7.34,
            9.375,
            12.23,
            16.3
          ]
        ]
      }
    },
    "003": {
      "reaction": {
        "1": {
          "x4_code": "(23-V-50(N,0),,EN)",
          "0": {
            "code": [
              "23-V-50",
              [
                "N,0"
              ],
              ",,EN"
            ],
            "type": null,
            "target": "23-V-50",
            "process": "N,0",
            "sf49": ",,EN",
            "sf4": null,
            "sf5": null,
            "sf6": "EN",
            "sf7": null,
            "sf8": null,
            "sf9": null
          },
          "type": null,
          "free_text": ""
        },
        "2": {
          "x4_code": "(23-V-50(N,EL),,WID)",
          "0": {
            "code": [
              "23-V-50",
              [
                "N,EL"
              ],
              ",,WID"
            ],
            "type": null,
            "target": "23-V-50",
            "process": "N,EL",
            "sf49": ",,WID",
            "sf4": null,
            "sf5": null,
            "sf6": "WID",
            "sf7": null,
            "sf8": null,
            "sf9": null
          },
          "type": null,
          "free_text": ""
        },
        "3": {
          "x4_code": "(23-V-50(N,EL),,WID/RED)",
          "0": {
            "code": [
              "23-V-50",
              [
                "N,EL"
              ],
              ",,WID/RED"
            ],
            "type": null,
            "target": "23-V-50",
            "process": "N,EL",
            "sf49": ",,WID/RED",
            "sf4": null,
            "sf5": null,
            "sf6": "WID/RED",
            "sf7": null,
            "sf8": null,
            "sf9": null
          },
          "type": null,
          "free_text": ""
        }
      },
      "common": {
        "heads": [
          "MOMENTUM L"
        ],
        "units": [
          "NO-DIM"
        ],
        "data": [
          [
            0.0
          ]
        ]
      },
      "data": {
        "heads": [
          "DATA      1",
          "DATA      2",
          "DATA      3"
        ],
        "units": [
          "KEV",
          "EV",
          "EV"
        ],
        "data": [
          [
            6.2,
            7.3,
            8.25,
            11.8,
            15.0,
            15.3,
            17.6,
            20.5,
            22.6,
            25.8,
            29.0,
            34.1,
            37.0,
            40.7
          ],
          [
            74.0,
            280.0,
            125.0,
            319.0,
            121.0,
            156.0,
            132.0,
            529.0,
            660.0,
            195.0,
            323.0,
            752.0,
            621.0,
            466.0
          ],
          [
            0.94,
            3.27,
            1.38,
            2.92,
            1.0,
            1.26,
            1.0,
            3.7,
            4.4,
            1.22,
            1.9,
            4.06,
            3.23,
            2.3
          ]
        ]
      }
    }
  },
  "experimental_conditions": {
    "001": {
      "sample": {
        "0": [
          {
            "x4_code": null,
            "free_txt": [
              "V(2)O(5) SAMPLE"
            ]
          }
        ]
      },
      "status": {
        "0": [
          {
            "x4_code": "(SCSRS)",
            "free_txt": []
          }
        ]
      }
    },
    "002": {
      "status": {
        "0": [
          {
            "x4_code": null,
            "free_txt": [
              "DATA TRANSLATED FROM EXCILE"
            ]
          }
        ]
      }
    },
    "003": {
      "analysis": {
        "0": [
          {
            "x4_code": "(AREA)",
            "free_txt": [
              "     AREA ANALYSIS"
            ]
          }
        ]
      }
    }
  }
}