{
  "bib": {
    "title": " Measurement Of The Total Neutron Cross Section Of Nd-145",
    "authors": [
      {
        "name": "V.A.Anufriev"
      },
      {
        "name": "A.G.Kolesov"
      },
      {
        "name": "S.N.Nikol'Skii"
      },
      {
        "name": "V.A.Safonov"
      }
    ],
    "institutes": [
      {
        "x4_code": "(4RUSNIR)",
        "free_txt": []
      }
    ],
    "references": {
      "0": [
        {
          "x4_code": "(J,SJA,47,851,1979)",
          "free_txt": [
            " Eng.trans.of AE,47,269,1979"
          ],
          "publication_year": "1979"
        },
        {
          "x4_code": "(J,AE,47,(4),269,197910)",
          "free_txt": [],
          "publication_year": "1979"
        }
      ]
    },
    "facility": {
      "0": [
        {
          "x4_code": "(REAC,4RUSNIR)",
          "free_txt": [
            " Reactor SM-2, neutron spectrometer"
          ],
          "facility_type": "(REAC)",
          "insitute": "(4RUSNIR)"
        }
      ]
    },
    "history": [
      {
        "x4_code": "(19800606C)",
        "free_txt": []
      },
      {
        "x4_code": "(20150312A)",
        "free_txt": [
          " SD: Updated to new date formats,lower case.",
          " Ref. on Engl.transl. of AE added."
        ]
      },
      {
        "x4_code": "(20150320A)",
        "free_txt": [
          " M.M. Article was checked, information was",
          " updated in TITLE,STATUS,METHOD .",
          " Subents 003,004 were re-stored from archive."
        ]
      }
    ]
  },
  "40495-001": {
    "extra_information": {
      "analysis": {
        "0": [
          {
            "x4_code": "(SHAPE)",
            "free_txt": [
              "  For resonance parameters determination",
              "         below 103 eV"
            ]
          },
          {
            "x4_code": "(AREA)",
            "free_txt": [
              "   for resonance parameters determination",
              "         above 103 eV"
            ]
          }
        ]
      },
      "detector": {
        "0": [
          {
            "x4_code": "(PROPC)",
            "free_txt": [
              "  He-counters SNM-17"
            ]
          }
        ]
      },
      "facility": {
        "0": [
          {
            "x4_code": "(REAC,4RUSNIR)",
            "free_txt": [
              " Reactor SM-2, neutron spectrometer"
            ]
          }
        ]
      },
      "method": {
        "0": [
          {
            "x4_code": "(TOF)",
            "free_txt": [
              "  Flight base 91.7 m, resolution 70 nsec/m",
              "       for energies 0.02-1 eV resolution 1500 nsec/m"
            ]
          },
          {
            "x4_code": "(TRN)",
            "free_txt": [
              "  Energy range up to 350 eV.",
              "  1500 nsec/m resolution at 0.02 - 1 eV energy.,"
            ]
          }
        ]
      },
      "monitor": {
        "0": [
          {
            "x4_code": null,
            "free_txt": [
              " Absolute measurements"
            ]
          }
        ]
      },
      "sample": {
        "0": [
          {
            "x4_code": null,
            "free_txt": [
              " Oxide Nd2-O3,",
              " Nd-142 content  0.60%, thickness 6.30 x 10**(-5) at/b",
              " Nd-143 content  0.50%, thickness 6.20 x 10**(-5) at/b",
              " Nd-144 content  2.99%,thickness 3.11 x 10**(-4) at/b",
              " Nd-145 content 84.80%, thickness 8.76 x 10**(-3) at/b",
              " Nd-146 content 10.72%, thickness 1.10 x 10**(-3) at/b",
              " Nd-148 content  0.28%, thickness 2.80 x 10**(-5) at/b",
              " Nd-150 content  0.11%, thickness 1.10 x 10**(-5) at/b"
            ]
          }
        ]
      }
    }
  },
  "40495-002": {
    "reaction": {
      "1": {
        "x4_code": "(60-ND-145(N,0),,EN)",
        "0": {
          "code": [
            "60-ND-145",
            [
              "N,0"
            ],
            ",,EN"
          ],
          "type": null,
          "target": "60-ND-145",
          "process": "N,0",
          "sf49": ",,EN",
          "sf4": null,
          "sf5": null,
          "sf6": "EN",
          "sf7": null,
          "sf8": null,
          "sf9": null
        },
        "type": null,
        "free_text": "  Resonance energy"
      },
      "2": {
        "x4_code": "(60-ND-145(N,G),,WID)",
        "0": {
          "code": [
            "60-ND-145",
            [
              "N,G"
            ],
            ",,WID"
          ],
          "type": null,
          "target": "60-ND-145",
          "process": "N,G",
          "sf49": ",,WID",
          "sf4": null,
          "sf5": null,
          "sf6": "WID",
          "sf7": null,
          "sf8": null,
          "sf9": null
        },
        "type": null,
        "free_text": "          gamma-width"
      },
      "3": {
        "x4_code": "(60-ND-145(N,EL),,WID/RED,,2G)",
        "0": {
          "code": [
            "60-ND-145",
            [
              "N,EL"
            ],
            ",,WID/RED,,2G"
          ],
          "type": null,
          "target": "60-ND-145",
          "process": "N,EL",
          "sf49": ",,WID/RED,,2G",
          "sf4": null,
          "sf5": null,
          "sf6": "WID/RED",
          "sf7": null,
          "sf8": "2G",
          "sf9": null
        },
        "type": null,
        "free_text": " 2g*Gn0"
      }
    },
    "extra_information": {
      "assumed": {
        "0": [
          {
            "x4_code": "(ASSUM,60-ND-145(N,G),,WID)",
            "free_txt": [
              " For levels",
              "    by which gamma-width was not measured"
            ]
          }
        ]
      },
      "err-analys": {
        "0": [
          {
            "x4_code": "(DATA-ERR)",
            "free_txt": [
              " Type of error is not explained in article"
            ]
          }
        ]
      },
      "status": {
        "0": [
          {
            "x4_code": "(TABLE)",
            "free_txt": [
              " Table 2 of SJA,47,851,1979"
            ]
          }
        ]
      }
    },
    "common": null,
    "data": {
      "heads": [
        "DATA      1",
        "DATA-ERR  1",
        "DATA      2",
        "DATA-ERR  2",
        "DATA      3",
        "DATA-ERR  3",
        "ASSUM"
      ],
      "units": [
        "EV",
        "EV",
        "MILLI-EV",
        "MILLI-EV",
        "MILLI-EV",
        "MILLI-EV",
        "MILLI-EV"
      ],
      "data": [
        [
          -2.5,
          4.35,
          18.9,
          42.5,
          85.6,
          95.9,
          102.6,
          103.2,
          146.6,
          151.9,
          169.8,
          188.8,
          232.5,
          241.5,
          247.0,
          259.2,
          274.0,
          305.0,
          310.0,
          320.0,
          342.0
        ],
        [
          null,
          0.02,
          0.1,
          0.3,
          0.6,
          1.1,
          1.2,
          1.2,
          1.4,
          1.4,
          1.5,
          1.7,
          2.0,
          2.2,
          2.2,
          2.3,
          2.5,
          3.0,
          3.0,
          4.0,
          4.0
        ],
        [
          null,
          57.0,
          null,
          65.0,
          58.0,
          null,
          68.0,
          null,
          null,
          null,
          null,
          null,
          null,
          null,
          null,
          null,
          null,
          null,
          null,
          null,
          null
        ],
        [
          null,
          4.0,
          null,
          8.0,
          10.0,
          null,
          15.0,
          null,
          null,
          null,
          null,
          null,
          null,
          null,
          null,
          null,
          null,
          null,
          null,
          null,
          null
        ],
        [
          0.95,
          0.54,
          0.005,
          52.2,
          1.52,
          0.47,
          1.11,
          4.1,
          1.4,
          1.31,
          0.2,
          2.25,
          0.24,
          4.8,
          0.3,
          5.3,
          7.4,
          null,
          20.0,
          null,
          3.0
        ],
        [
          null,
          0.03,
          0.001,
          3.0,
          0.15,
          0.03,
          1.0,
          0.3,
          0.2,
          0.06,
          0.02,
          0.18,
          0.03,
          0.3,
          null,
          0.6,
          0.7,
          null,
          1.0,
          null,
          0.2
        ],
        [
          60.0,
          null,
          60.0,
          null,
          null,
          60.0,
          null,
          60.0,
          60.0,
          60.0,
          60.0,
          60.0,
          60.0,
          60.0,
          60.0,
          60.0,
          60.0,
          null,
          60.0,
          null,
          60.0
        ]
      ]
    }
  },
  "40495-003": {
    "reaction": {
      "0": {
        "x4_code": "(60-ND-145(N,ABS),,RI,,,DERIV)",
        "0": {
          "code": [
            "60-ND-145",
            [
              "N,ABS"
            ],
            ",,RI,,,DERIV"
          ],
          "type": null,
          "target": "60-ND-145",
          "process": "N,ABS",
          "sf49": ",,RI,,,DERIV",
          "sf4": null,
          "sf5": null,
          "sf6": "RI",
          "sf7": null,
          "sf8": null,
          "sf9": "DERIV"
        },
        "type": null,
        "free_text": ""
      }
    },
    "extra_information": {
      "analysis": {
        "0": [
          {
            "x4_code": null,
            "free_txt": [
              " Obtained from resonance parameters."
            ]
          }
        ]
      },
      "err-analys": {
        "0": [
          {
            "x4_code": "(DATA-ERR)",
            "free_txt": [
              " Type of error is not explained in article"
            ]
          }
        ]
      },
      "status": {
        "0": [
          {
            "x4_code": "(TABLE)",
            "free_txt": [
              " Text, page 853 of SJA,47,851,1979"
            ]
          },
          {
            "x4_code": "(DEP,40495002)",
            "free_txt": [
              "  Res.parameters data ."
            ]
          }
        ]
      }
    },
    "common": null,
    "data": {
      "heads": [
        "EN",
        "DATA",
        "DATA-ERR"
      ],
      "units": [
        "EV",
        "B",
        "B"
      ],
      "data": [
        [
          0.0253
        ],
        [
          245.0
        ],
        [
          30.0
        ]
      ]
    }
  },
  "40495-004": {
    "reaction": {
      "1": {
        "x4_code": "(60-ND-145(N,TOT),,SIG)",
        "0": {
          "code": [
            "60-ND-145",
            [
              "N,TOT"
            ],
            ",,SIG"
          ],
          "type": null,
          "target": "60-ND-145",
          "process": "N,TOT",
          "sf49": ",,SIG",
          "sf4": null,
          "sf5": null,
          "sf6": "SIG",
          "sf7": null,
          "sf8": null,
          "sf9": null
        },
        "type": null,
        "free_text": ""
      },
      "2": {
        "x4_code": "(60-ND-145(N,ABS),,SIG)",
        "0": {
          "code": [
            "60-ND-145",
            [
              "N,ABS"
            ],
            ",,SIG"
          ],
          "type": null,
          "target": "60-ND-145",
          "process": "N,ABS",
          "sf49": ",,SIG",
          "sf4": null,
          "sf5": null,
          "sf6": "SIG",
          "sf7": null,
          "sf8": null,
          "sf9": null
        },
        "type": null,
        "free_text": ""
      },
      "3": {
        "x4_code": "(60-ND-145(N,EL)60-ND-145,POT,SIG)",
        "0": {
          "code": [
            "60-ND-145",
            [
              "N,EL"
            ],
            "60-ND-145,POT,SIG"
          ],
          "type": null,
          "target": "60-ND-145",
          "process": "N,EL",
          "sf49": "60-ND-145,POT,SIG",
          "sf4": "60-ND-145",
          "sf5": "POT",
          "sf6": "SIG",
          "sf7": null,
          "sf8": null,
          "sf9": null
        },
        "type": null,
        "free_text": ""
      }
    },
    "extra_information": {
      "analysis": {
        "2": [
          {
            "x4_code": null,
            "free_txt": [
              "  Defined by total CS and pot.scattering CS."
            ]
          }
        ]
      },
      "err-analys": {
        "0": [
          {
            "x4_code": "(DATA-ERR)",
            "free_txt": [
              " Type of error is not explained in article"
            ]
          }
        ]
      },
      "status": {
        "0": [
          {
            "x4_code": "(TABLE)",
            "free_txt": [
              " Text, page 853 of SJA,47,851,1979"
            ]
          }
        ]
      }
    },
    "common": {
      "heads": [
        "EN"
      ],
      "units": [
        "EV"
      ],
      "data": [
        [
          0.0253
        ]
      ]
    },
    "data": {
      "heads": [
        "DATA      1",
        "DATA-ERR  1",
        "DATA      2",
        "DATA-ERR  2",
        "DATA      3",
        "DATA-ERR  3"
      ],
      "units": [
        "B",
        "B",
        "B",
        "B",
        "B",
        "B"
      ],
      "data": [
        [
          64.0
        ],
        [
          4.0
        ],
        [
          47.0
        ],
        [
          3.0
        ],
        [
          17.0
        ],
        [
          2.0
        ]
      ]
    }
  },
  "40495-005": {
    "reaction": {
      "0": {
        "x4_code": "(60-ND-145(N,TOT),,TRN)",
        "0": {
          "code": [
            "60-ND-145",
            [
              "N,TOT"
            ],
            ",,TRN"
          ],
          "type": null,
          "target": "60-ND-145",
          "process": "N,TOT",
          "sf49": ",,TRN",
          "sf4": null,
          "sf5": null,
          "sf6": "TRN",
          "sf7": null,
          "sf8": null,
          "sf9": null
        },
        "type": null,
        "free_text": "       Transmission"
      }
    },
    "extra_information": {
      "status": {
        "0": [
          {
            "x4_code": "(TABLE)",
            "free_txt": [
              "  Data on transmission, 1980/02, Anufriev"
            ]
          }
        ]
      }
    },
    "common": {
      "heads": [
        "THICKNESS"
      ],
      "units": [
        "ATOMS/B"
      ],
      "data": [
        [
          0.00876
        ]
      ]
    },
    "data": {
      "heads": [
        "EN",
        "DATA"
      ],
      "units": [
        "EV",
        "NO-DIM"
      ],
      "data": [
        [
          6544.4,
          6387.6,
          6236.5,
          6090.6,
          5949.8,
          5813.8,
          5682.4,
          5555.4,
          5432.6,
          5313.9,
          5199.0,
          5087.8,
          4980.1,
          4875.8,
          4774.8,
          4676.8,
          4581.9,
          4489.8,
          4400.4,
          4313.7,
          4229.6,
          4147.8,
          4068.5,
          3991.3,
          3916.4,
          3843.5,
          3772.7,
          3703.8,
          3636.7,
          3571.5,
          3508.0,
          3446.2,
          3386.0,
          3327.4,
          3270.2,
          3214.6,
          3160.3,
          3107.4,
          3055.9,
          3005.6,
          2956.5,
          2908.6,
          2861.9,
          2816.3,
          2771.8,
          2728.3,
          2685.8,
          2644.3,
          2603.8,
          2564.2,
          2525.5,
          2487.7,
          2450.7,
          2414.5,
          2379.1,
          2344.5,
          2310.7,
          2277.5,
          2245.1,
          2213.4,
          2182.3,
          2151.9,
          2122.1,
          2093.0,
          2064.4,
          2036.4,
          2009.0,
          1982.1,
          1955.8,
          1929.9,
          1904.6,
          1879.8,
          1855.5,
          1831.6,
          1808.2,
          1785.2,
          1762.7,
          1740.6,
          1718.9,
          1697.6,
          1676.7,
          1656.2,
          1636.1,
          1616.3,
          1596.9,
          1577.8,
          1559.1,
          1540.7,
          1522.6,
          1504.9,
          1487.4,
          1470.3,
          1453.4,
          1436.9,
          1420.6,
          1404.6,
          1388.9,
          1373.4,
          1358.2,
          1343.2,
          1328.5,
          1314.0,
          1299.8,
          1285.7,
          1272.0,
          1258.4,
          1245.0,
          1231.9,
          1219.0,
          1206.2,
          1193.7,
          1181.4,
          1169.2,
          1157.2,
          1145.5,
          1133.9,
          1122.4,
          1111.2,
          1100.1,
          1089.2,
          1078.4,
          1067.8,
          1057.4,
          1047.1,
          1037.0,
          1027.0,
          1017.1,
          1007.4,
          997.83,
          988.4,
          979.09,
          969.92,
          960.88,
          951.96,
          943.17,
          934.49,
          925.94,
          917.5,
          909.18,
          900.97,
          892.87,
          884.88,
          877.0,
          869.22,
          861.55,
          853.97,
          846.5,
          839.12,
          831.84,
          824.66,
          817.56,
          810.56,
          803.65,
          796.82,
          790.08,
          783.43,
          776.86,
          770.37,
          763.97,
          757.64,
          751.39,
          745.22,
          739.12,
          733.1,
          727.15,
          721.28,
          715.47,
          709.74,
          704.07,
          698.47,
          692.94,
          687.47,
          682.07,
          676.73,
          671.45,
          666.24,
          661.08,
          655.99,
          650.95,
          645.97,
          641.05,
          636.19,
          631.38,
          626.62,
          621.92,
          617.27,
          612.67,
          608.12,
          603.63,
          599.18,
          594.78,
          590.43,
          586.13,
          581.88,
          577.67,
          573.5,
          569.39,
          565.31,
          561.28,
          557.29,
          553.35,
          549.44,
          545.58,
          541.76,
          537.98,
          534.24,
          530.53,
          526.87,
          523.24,
          519.65,
          516.1,
          512.58,
          509.1,
          505.65,
          502.24,
          498.87,
          495.52,
          492.21,
          488.94,
          485.69,
          482.48,
          479.3,
          476.16,
          473.04,
          469.95,
          466.9,
          463.87,
          460.87,
          457.9,
          454.96,
          452.05,
          449.17,
          446.31,
          443.48,
          440.68,
          437.9,
          435.15,
          432.43,
          429.73,
          427.06,
          424.41,
          421.79,
          419.19,
          416.61,
          414.06,
          411.53,
          409.02,
          406.54,
          404.08,
          401.64,
          399.23,
          396.83,
          394.46,
          392.11,
          389.78,
          387.47,
          385.18,
          382.91,
          380.66,
          378.43,
          376.22,
          374.03,
          371.86,
          369.71,
          367.57,
          365.46,
          363.36,
          361.28,
          359.22,
          357.18,
          355.15,
          353.14,
          351.15,
          349.17,
          347.21,
          345.27,
          343.34,
          341.43,
          339.54,
          337.66,
          335.8,
          333.95,
          332.12,
          330.3,
          328.5,
          326.71,
          324.94,
          323.18,
          321.43,
          319.7,
          317.99,
          316.29,
          314.6,
          312.92,
          311.26,
          309.61,
          307.97,
          306.35,
          304.74,
          303.14,
          301.56,
          299.98,
          298.42,
          296.88,
          295.34,
          293.82,
          292.3,
          290.8,
          289.31,
          287.83,
          286.37,
          284.91,
          283.47,
          282.03,
          280.61,
          279.2,
          277.8,
          276.41,
          275.03,
          273.66,
          272.3,
          270.95,
          269.61,
          268.28,
          266.96,
          265.65,
          264.35,
          263.06,
          261.78,
          260.5,
          259.24,
          257.99,
          256.74,
          255.51,
          254.28,
          253.06,
          251.85,
          250.65,
          249.46,
          248.27,
          247.1,
          245.93,
          244.77,
          243.62,
          242.48,
          241.35,
          240.22,
          239.1,
          237.99,
          236.89,
          235.79,
          234.7,
          233.62,
          232.55,
          231.49,
          230.43,
          229.38,
          228.33,
          227.3,
          226.27,
          225.24,
          224.23,
          223.22,
          222.22,
          221.22,
          220.23,
          219.25,
          218.27,
          217.31,
          216.34,
          215.39,
          214.44,
          213.49,
          212.56,
          211.62,
          210.7,
          209.78,
          208.87,
          207.96,
          207.06,
          206.16,
          205.27,
          204.39,
          203.51,
          202.64,
          201.77,
          200.91,
          200.06,
          199.21,
          198.36,
          197.52,
          196.69,
          195.86,
          195.03,
          194.21,
          193.4,
          192.59,
          191.79,
          190.99,
          190.2,
          189.41,
          188.63,
          187.85,
          187.07,
          186.3,
          185.54,
          184.78,
          184.03,
          183.28,
          182.53,
          181.79,
          181.05,
          180.32,
          179.59,
          178.87,
          178.15,
          177.43,
          176.72,
          176.02,
          175.32,
          174.62,
          173.92,
          173.23,
          172.55,
          171.87,
          171.19,
          170.52,
          169.85,
          169.18,
          168.52,
          167.86,
          167.21,
          166.56,
          165.91,
          165.27,
          164.63,
          164.0,
          163.37,
          162.74,
          162.11,
          161.49,
          160.88,
          160.26,
          159.65,
          159.05,
          158.44,
          157.84,
          157.25,
          156.66,
          156.07,
          155.48,
          154.9,
          154.32,
          153.74,
          153.17,
          152.6,
          152.03,
          151.47,
          150.91,
          150.35,
          149.8,
          149.24,
          148.7,
          148.15,
          147.61,
          147.07,
          146.53,
          146.0,
          145.47,
          144.94,
          144.42,
          143.9,
          143.38,
          142.86,
          142.35,
          141.84,
          141.33,
          140.82,
          140.32,
          139.82,
          139.32,
          138.83,
          138.34,
          137.85,
          137.36,
          136.88,
          136.4,
          135.92,
          135.44,
          134.97,
          134.49,
          134.03,
          133.56,
          133.09,
          132.63,
          132.17,
          131.72,
          131.26,
          130.81,
          130.36,
          129.91,
          129.47,
          129.02,
          128.58,
          128.14,
          127.71,
          127.27,
          126.84,
          126.41,
          125.99,
          125.56,
          125.14,
          124.72,
          124.3,
          123.88,
          123.47,
          123.05,
          122.64,
          122.23,
          121.83,
          121.42,
          121.02,
          120.62,
          120.22,
          119.83,
          119.43,
          119.04,
          118.65,
          118.26,
          117.87,
          117.49,
          117.1,
          116.72,
          116.34,
          115.97,
          115.59,
          115.22,
          114.85,
          114.48,
          114.11,
          113.74,
          113.38,
          113.01,
          112.65,
          112.29,
          111.93,
          111.58,
          111.22,
          110.87,
          110.52,
          110.17,
          109.82,
          109.48,
          109.13,
          108.79,
          108.45,
          108.11,
          107.77,
          107.43,
          107.1,
          106.76,
          106.43,
          106.1,
          105.77,
          105.45,
          105.12,
          104.8,
          104.47,
          104.15,
          103.83,
          103.51,
          103.2,
          102.88,
          102.57,
          102.26,
          101.94,
          101.64,
          101.33,
          101.02,
          100.71,
          100.41,
          100.11,
          99.807,
          99.507,
          99.208,
          98.911,
          98.615,
          98.32,
          98.027,
          97.735,
          97.445,
          97.155,
          96.867,
          96.58,
          96.295,
          96.011,
          95.728,
          95.446,
          95.165,
          94.886,
          94.608,
          94.331,
          94.055,
          93.781,
          93.508,
          93.236,
          92.965,
          92.695,
          92.427,
          92.16,
          91.893,
          91.628,
          91.364,
          91.102,
          90.84,
          90.58,
          90.32,
          90.062,
          89.805,
          89.549,
          89.294,
          89.04,
          88.787,
          88.536,
          88.285,
          88.035,
          87.787,
          87.539,
          87.293,
          87.048,
          86.803,
          86.56,
          86.318,
          86.076,
          85.836,
          85.597,
          85.359,
          85.121,
          84.885,
          84.65,
          84.415,
          84.182,
          83.95,
          83.718,
          83.488,
          83.258,
          83.03,
          82.802,
          82.575,
          82.35,
          82.125,
          81.901,
          81.678,
          81.456,
          81.235,
          81.014,
          80.795,
          80.576,
          80.359,
          80.142,
          79.926,
          79.711,
          79.497,
          79.284,
          79.071,
          78.86,
          78.649,
          78.439,
          78.23,
          78.022,
          77.815,
          77.608,
          77.402,
          77.197,
          76.993,
          76.79,
          76.587,
          76.386,
          76.185,
          75.985,
          75.786,
          75.587,
          75.389,
          75.192,
          74.996,
          74.801,
          74.606,
          74.412,
          74.219,
          74.027,
          73.835,
          73.644,
          73.454,
          73.264,
          73.076,
          72.888,
          72.7,
          72.514,
          72.143,
          71.959,
          71.775,
          71.592,
          71.41,
          71.228,
          71.047,
          70.867,
          70.687,
          70.509,
          70.33,
          70.153,
          69.976,
          69.8,
          69.624,
          69.45,
          69.275,
          69.102,
          68.929,
          68.757,
          68.585,
          68.414,
          68.244,
          68.074,
          67.905,
          67.737,
          67.569,
          67.402,
          67.236,
          67.07,
          66.904,
          66.74,
          66.576,
          66.412,
          66.249,
          66.087,
          65.925,
          65.764,
          65.604,
          65.444,
          65.284,
          65.126,
          64.968,
          64.81,
          64.653,
          64.497,
          64.341,
          64.185,
          64.031,
          63.876,
          63.723,
          63.417,
          63.265,
          63.114,
          62.963,
          62.812,
          62.663,
          62.513,
          62.365,
          62.216,
          62.069,
          61.921,
          61.775,
          61.629,
          61.483,
          61.338,
          61.193,
          61.049,
          60.906,
          60.763,
          60.62,
          60.478,
          60.337,
          60.195,
          60.055,
          59.915,
          59.775,
          59.636,
          59.498,
          59.359,
          59.222,
          59.085,
          58.948,
          58.812,
          58.676,
          58.541,
          58.406,
          58.272,
          58.138,
          58.004,
          57.871,
          57.739,
          57.607,
          57.475,
          57.344,
          57.213,
          57.083,
          56.953,
          56.824,
          56.695,
          56.566,
          56.438,
          56.311,
          56.184,
          56.057,
          55.931,
          55.805,
          55.679,
          55.554,
          55.429,
          55.305,
          55.181,
          55.058,
          54.935,
          54.813,
          54.69,
          54.569,
          54.447,
          54.326,
          54.206,
          54.086,
          53.966,
          53.847,
          53.728,
          53.609,
          53.491,
          53.373,
          53.256,
          53.139,
          53.022,
          52.906,
          52.79,
          52.675,
          52.56,
          52.445,
          52.331,
          52.217,
          52.103,
          51.99,
          51.765,
          51.653,
          51.541,
          51.43,
          51.319,
          51.208,
          51.098,
          50.988,
          50.878,
          50.769,
          50.551,
          50.443,
          50.335,
          50.228,
          50.121,
          50.014,
          49.907,
          49.801,
          49.695,
          49.59,
          49.485,
          49.38,
          49.276,
          49.172,
          49.068,
          48.964,
          48.861,
          48.758,
          48.656,
          48.554,
          48.452,
          48.35,
          48.249,
          48.148,
          48.048,
          47.947,
          47.847,
          47.748,
          47.649,
          47.55,
          47.451,
          47.352,
          47.254,
          47.157,
          47.059,
          46.962,
          46.865,
          46.768,
          46.672,
          46.576,
          46.48,
          46.385,
          46.29,
          46.195,
          46.101,
          45.912,
          45.819,
          45.725,
          45.632,
          45.54,
          45.447,
          45.355,
          45.263,
          45.171,
          45.08,
          44.989,
          44.898,
          44.807,
          44.717,
          44.627,
          44.537,
          44.448,
          44.359,
          44.27,
          44.181,
          44.093,
          44.004,
          43.917,
          43.829,
          43.742,
          43.654,
          43.568,
          43.481,
          43.395,
          43.309,
          43.223,
          43.137,
          43.052,
          42.967,
          42.882,
          42.798,
          42.713,
          42.629,
          42.546,
          42.462,
          42.379,
          42.296,
          42.213,
          42.13,
          42.048,
          41.966,
          41.884,
          41.802,
          41.721,
          41.64,
          41.559,
          41.478,
          41.398,
          41.318,
          41.238,
          41.158,
          41.079,
          40.999,
          40.92,
          40.841,
          40.763,
          40.685,
          40.606,
          40.529,
          40.451,
          40.373,
          40.296,
          40.219,
          40.142,
          40.066,
          39.989,
          39.913,
          39.837,
          39.762,
          39.686,
          39.611,
          39.536,
          39.461,
          39.386,
          39.312,
          39.238,
          39.164,
          39.09,
          39.016,
          38.943,
          38.87,
          38.797,
          38.724,
          38.652,
          38.579,
          38.507,
          38.435,
          38.363,
          38.292,
          38.221,
          38.149,
          38.078,
          38.008,
          37.937,
          37.867,
          37.797,
          37.727,
          37.657,
          37.587,
          37.518,
          37.449,
          37.38,
          37.311,
          37.242,
          37.174,
          37.106,
          37.038,
          36.97,
          36.902,
          36.835,
          36.767,
          36.7,
          36.633,
          36.566,
          36.5,
          36.433,
          36.367,
          36.301,
          36.235,
          36.17,
          36.104,
          36.039,
          35.974,
          35.909,
          35.844,
          35.779,
          35.715,
          35.651,
          35.587,
          35.523,
          35.459,
          35.395,
          35.332,
          35.269,
          35.206,
          35.143,
          35.08,
          35.017,
          34.955,
          34.893,
          34.831,
          34.769,
          34.707,
          34.646,
          34.584,
          34.523,
          34.462,
          34.401,
          34.34,
          34.28,
          34.219,
          34.159,
          34.099,
          34.039,
          33.979,
          33.919,
          33.86,
          33.801,
          33.741,
          33.682,
          33.624,
          33.565,
          33.448,
          33.39,
          33.332,
          33.274,
          33.216,
          33.158,
          33.101,
          33.043,
          32.986,
          32.929,
          32.872,
          32.816,
          32.759,
          32.702,
          32.646,
          32.59,
          32.534,
          32.478,
          32.422,
          32.367,
          32.311,
          32.256,
          32.201,
          32.146,
          32.091,
          32.036,
          31.982,
          31.927,
          31.873,
          31.819,
          31.765,
          31.711,
          31.657,
          31.603,
          31.55,
          31.496,
          31.443,
          31.39,
          31.337,
          31.284,
          31.232,
          31.179,
          31.127,
          31.074,
          31.022,
          30.97,
          30.918,
          30.867,
          30.815,
          30.763,
          30.661,
          30.61,
          30.559,
          30.508,
          30.457,
          30.406,
          30.356,
          30.306,
          30.255,
          30.205,
          30.155,
          30.105,
          30.056,
          30.006,
          29.956,
          29.907,
          29.858,
          29.809,
          29.76,
          29.711,
          29.662,
          29.613,
          29.565,
          29.516,
          29.468,
          29.42,
          29.372,
          29.324,
          29.276,
          29.229,
          29.181,
          29.133,
          29.086,
          29.039,
          28.992,
          28.945,
          28.898,
          28.851,
          28.804,
          28.758,
          28.711,
          28.665,
          28.619,
          28.573,
          28.527,
          28.481,
          28.435,
          28.389,
          28.344,
          28.298,
          28.253,
          28.208,
          28.163,
          28.118,
          28.073,
          28.028,
          27.983,
          27.939,
          27.894,
          27.85,
          27.806,
          27.762,
          27.718,
          27.674,
          27.63,
          27.586,
          27.542,
          27.499,
          27.455,
          27.412,
          27.369,
          27.326,
          27.283,
          27.24,
          27.197,
          27.154,
          27.112,
          27.069,
          27.027,
          26.984,
          26.942,
          26.9,
          26.858,
          26.816,
          26.774,
          26.733,
          26.691,
          26.65,
          26.608,
          26.567,
          26.526,
          26.484,
          26.443,
          26.402,
          26.362,
          26.321,
          26.28,
          26.24,
          26.199,
          26.159,
          26.118,
          26.078,
          26.038,
          25.998,
          25.958,
          25.918,
          25.879,
          25.839,
          25.799,
          25.76,
          25.721,
          25.681,
          25.642,
          25.603,
          25.564,
          25.525,
          25.486,
          25.447,
          25.409,
          25.37,
          25.332,
          25.293,
          25.255,
          25.217,
          25.179,
          25.141,
          25.103,
          25.065,
          25.027,
          24.989,
          24.952,
          24.914,
          24.877,
          24.839,
          24.802,
          24.765,
          24.728,
          24.691,
          24.654,
          24.617,
          24.58,
          24.543,
          24.507,
          24.47,
          24.434,
          24.397,
          24.361,
          24.325,
          24.289,
          24.253,
          24.217,
          24.181,
          24.145,
          24.109,
          24.074,
          24.038,
          24.003,
          23.967,
          23.932,
          23.897,
          23.861,
          23.826,
          23.791,
          23.756,
          23.721,
          23.687,
          23.652,
          23.617,
          23.583,
          23.548,
          23.514,
          23.48,
          23.445,
          23.411,
          23.377,
          23.343,
          23.309,
          23.275,
          23.241,
          23.207,
          23.174,
          23.14,
          23.107,
          23.073,
          23.04,
          23.007,
          22.973,
          22.94,
          22.907,
          22.874,
          22.841,
          22.808,
          22.775,
          22.743,
          22.71,
          22.677,
          22.645,
          22.612,
          22.58,
          22.548,
          22.516,
          22.483,
          22.451,
          22.419,
          22.387,
          22.355,
          22.323,
          22.292,
          22.26,
          22.228,
          22.197,
          22.165,
          22.134,
          22.103,
          22.071,
          22.04,
          22.009,
          21.978,
          21.947,
          21.916,
          21.885,
          21.823,
          21.793,
          21.762,
          21.731,
          21.701,
          21.67,
          21.64,
          21.61,
          21.579,
          21.549,
          21.519,
          21.489,
          21.459,
          21.429,
          21.399,
          21.369,
          21.34,
          21.31,
          21.28,
          21.251,
          21.221,
          21.192,
          21.162,
          21.133,
          21.104,
          21.075,
          21.046,
          21.016,
          20.987,
          20.958,
          20.93,
          20.901,
          20.872,
          20.843,
          20.815,
          20.786,
          20.757,
          20.729,
          20.701,
          20.672,
          20.644,
          20.616,
          20.587,
          20.559,
          20.503,
          20.475,
          20.447,
          20.419,
          20.392,
          20.364,
          20.336,
          20.309,
          20.281,
          20.254,
          20.226,
          20.199,
          20.171,
          20.144,
          20.117,
          20.09,
          20.063,
          20.035,
          20.008,
          19.982,
          19.955,
          19.928,
          19.901,
          19.874,
          19.848,
          19.821,
          19.794,
          19.768,
          19.741,
          19.715,
          19.689,
          19.662,
          19.636,
          19.61,
          19.584,
          19.558,
          19.531,
          19.505,
          19.48,
          19.454,
          19.428,
          19.402,
          19.376,
          19.351,
          19.325,
          19.299,
          19.274,
          19.248,
          19.223,
          19.197,
          19.172,
          19.147,
          19.122,
          19.096,
          19.071,
          19.046,
          19.021,
          18.996,
          18.971,
          18.946,
          18.922,
          18.897,
          18.872,
          18.847,
          18.823,
          18.774,
          18.749,
          18.725,
          18.7,
          18.676,
          18.651,
          18.627,
          18.603,
          18.579,
          18.555,
          18.531,
          18.507,
          18.483,
          18.459,
          18.435,
          18.411,
          18.387,
          18.363,
          18.34,
          18.316,
          18.292,
          18.269,
          18.245,
          18.222,
          18.198,
          18.175,
          18.152,
          18.128,
          18.105,
          18.082,
          18.059,
          18.036,
          18.013,
          17.99,
          17.944,
          17.921,
          17.898,
          17.875,
          17.852,
          17.83,
          17.807,
          17.784,
          17.762,
          17.739,
          17.717,
          17.694,
          17.672,
          17.649,
          17.627,
          17.605,
          17.583,
          17.56,
          17.538,
          17.516,
          17.494,
          17.472,
          17.45,
          17.428,
          17.406,
          17.384,
          17.362,
          17.341,
          17.319,
          17.297,
          17.275,
          17.254,
          17.232,
          17.211,
          17.189,
          17.168,
          17.146,
          17.125,
          17.104,
          17.082,
          17.061,
          17.04,
          17.019,
          16.997,
          16.976,
          16.955,
          16.934,
          16.913,
          16.892,
          16.871,
          16.851,
          16.83,
          16.809,
          16.788,
          16.767,
          16.747,
          16.726,
          16.705,
          16.685,
          16.664,
          16.644,
          16.623,
          16.603,
          16.583,
          16.562,
          16.542,
          16.522,
          16.502,
          16.481,
          16.461,
          16.441,
          16.421,
          16.401,
          16.381,
          16.361,
          16.341,
          16.321,
          16.301,
          16.281,
          16.262,
          16.242,
          16.222,
          16.202,
          16.183,
          16.163,
          16.144,
          16.124,
          16.105,
          16.085,
          16.066,
          16.046,
          16.027,
          16.008,
          15.988,
          15.969,
          15.95,
          15.931,
          15.912,
          15.892,
          15.873,
          15.854,
          15.835,
          15.816,
          15.797,
          15.778,
          15.76,
          15.741,
          15.722,
          15.703,
          15.684,
          15.666,
          15.647,
          15.628,
          15.61,
          15.591,
          15.573,
          15.554,
          15.536,
          15.517,
          15.499,
          15.48,
          15.462,
          15.444,
          15.425,
          15.407,
          15.389,
          15.371,
          15.353,
          15.334,
          15.316,
          15.298,
          15.28,
          15.262,
          15.244,
          15.226,
          15.209,
          15.191,
          15.173,
          15.155,
          15.137,
          15.12,
          15.102,
          15.084,
          15.066,
          15.049,
          15.031,
          15.014,
          14.996,
          14.979,
          14.961,
          14.944,
          14.926,
          14.909,
          14.892,
          14.874,
          14.857,
          14.84,
          14.823,
          14.805,
          14.788,
          14.771,
          14.754,
          14.737,
          14.72,
          14.703,
          14.686,
          14.669,
          14.652,
          14.635,
          14.618,
          14.601,
          14.585,
          14.568,
          14.551,
          14.534,
          14.518,
          14.501,
          14.484,
          14.468,
          14.451,
          14.435,
          14.418,
          14.402,
          14.385,
          14.369,
          14.352,
          14.336,
          14.32,
          14.303,
          14.287,
          14.271,
          14.255,
          14.238,
          14.222,
          14.206,
          14.19,
          14.174,
          14.158,
          14.142,
          14.126,
          14.11,
          14.094,
          14.078,
          14.062,
          14.046,
          14.03,
          14.014,
          13.998,
          13.983,
          13.967,
          13.951,
          13.935,
          13.92,
          13.904,
          13.889,
          13.873,
          13.857,
          13.842,
          13.826,
          13.811,
          13.795,
          13.78,
          13.765,
          13.749,
          13.734,
          13.718,
          13.703,
          13.688,
          13.673,
          13.657,
          13.642,
          13.627,
          13.612,
          13.597,
          13.582,
          13.567,
          13.551,
          13.536,
          13.521,
          13.506,
          13.492,
          13.477,
          13.462,
          13.447,
          13.432,
          13.417,
          13.402,
          13.388,
          13.373,
          13.358,
          13.343,
          13.329,
          13.314,
          13.299,
          13.285,
          13.27,
          13.256,
          13.241,
          13.227,
          13.212,
          13.198,
          13.183,
          13.169,
          13.154,
          13.14,
          13.126,
          13.111,
          13.097,
          13.083,
          13.068,
          13.054,
          13.04,
          13.026,
          13.012,
          12.998,
          12.983,
          12.969,
          12.955,
          12.941,
          12.927,
          12.913,
          12.899,
          12.885,
          12.871,
          12.857,
          12.844,
          12.83,
          12.816,
          12.802,
          12.788,
          12.774,
          12.761,
          12.747,
          12.733,
          12.72,
          12.706,
          12.692,
          12.679,
          12.665,
          12.651,
          12.638,
          12.624,
          12.611,
          12.597,
          12.584,
          12.57,
          12.557,
          12.544,
          12.53,
          12.517,
          12.503,
          12.49,
          12.477,
          12.464,
          12.45,
          12.437,
          6.7145,
          6.391,
          6.0903,
          5.8103,
          5.5492,
          5.3053,
          5.0771,
          4.8634,
          4.6629,
          4.4745,
          4.2973,
          4.1304,
          3.9731,
          3.8246,
          3.6842,
          3.5515,
          3.4258,
          3.3066,
          3.1936,
          3.0863,
          2.9842,
          2.7948,
          2.7068,
          2.6229,
          2.5428,
          2.4663,
          2.3932,
          2.3234,
          2.2565,
          2.1925,
          2.1312,
          2.0724,
          2.016,
          1.9619,
          1.9099,
          1.86,
          1.812,
          1.7658,
          1.7214,
          1.6786,
          1.6374,
          1.5977,
          1.5595,
          1.5226,
          1.4869,
          1.4526,
          1.4194,
          1.3873,
          1.3563,
          1.3263,
          1.2973,
          1.2693,
          1.2421,
          1.2158,
          1.1904,
          1.1657,
          1.1418,
          1.1186,
          1.0961,
          1.0743,
          1.0531,
          1.0326,
          1.0126,
          0.99327,
          0.97444,
          0.95614,
          0.93835,
          0.92106,
          0.90423,
          0.88787,
          0.87194,
          0.85644,
          0.84135,
          0.82665,
          0.81234,
          0.79839,
          0.78481,
          0.77156,
          0.75865,
          0.74606,
          0.73377,
          0.72179,
          0.71011,
          0.6987,
          0.68756,
          0.67669,
          0.66608,
          0.65571,
          0.64559,
          0.63569,
          0.62602,
          0.61657,
          0.60734,
          0.59831,
          0.58947,
          0.58084,
          0.57239,
          0.56412,
          0.55604,
          0.54812,
          0.54037,
          0.53279,
          0.52536,
          0.51809,
          0.51097,
          0.504,
          0.49716,
          0.49047,
          0.4839,
          0.47747,
          0.47117,
          0.46499,
          0.45893,
          0.45299,
          0.44717,
          0.44145,
          0.43584,
          0.43035,
          0.42495,
          0.41965,
          0.41446,
          0.40936,
          0.40435,
          0.39943,
          0.39461,
          0.38987,
          0.38521,
          0.38064,
          0.37615,
          0.37173,
          0.3674,
          0.36314,
          0.35895,
          0.35484,
          0.3508,
          0.34682,
          0.34291,
          0.33907,
          0.33529,
          0.33158,
          0.32792,
          0.32433,
          0.32079,
          0.31732,
          0.3139,
          0.31053,
          0.30722,
          0.30396,
          0.30075,
          0.29759,
          0.29448,
          0.29142,
          0.28841,
          0.28545,
          0.28253,
          0.27965,
          0.27682,
          0.27403,
          0.27128,
          0.26858,
          0.26591,
          0.26328,
          0.2607,
          0.25815,
          0.25563,
          0.25316,
          0.25072,
          0.24831,
          0.24594,
          0.24361,
          0.2413,
          0.23903,
          0.23679,
          0.23458,
          0.23241,
          0.23026,
          0.22814,
          0.22605,
          0.224,
          0.22196,
          0.21996,
          0.21798,
          0.21603,
          0.21411,
          0.21221,
          0.21033,
          0.20848,
          0.20666,
          0.20486,
          0.20308,
          0.20133,
          0.19959,
          0.19789,
          0.1962,
          0.19453,
          0.19289,
          0.19126,
          0.18966,
          0.18807,
          0.18651,
          0.18344,
          0.18193,
          0.18044,
          0.17897,
          0.17752,
          0.17609,
          0.17467,
          0.17327,
          0.17189,
          0.17052,
          0.16917,
          0.16783,
          0.16652,
          0.16521,
          0.16392,
          0.16265,
          0.16139,
          0.16015,
          0.15892,
          0.1577,
          0.1565,
          0.15531,
          0.15414,
          0.15298,
          0.15183,
          0.1507,
          0.14957,
          0.14846,
          0.14736,
          0.14628,
          0.14521,
          0.14414,
          0.14309,
          0.14205,
          0.14103,
          0.14001,
          0.13901,
          0.13801,
          0.13703,
          0.13605,
          0.13509,
          0.13414,
          0.13319,
          0.13226,
          0.13134,
          0.13042,
          0.12952,
          0.12862,
          0.12774,
          0.12686,
          0.126,
          0.12514,
          0.12429,
          0.12345,
          0.12261,
          0.12179,
          0.12097,
          0.12016,
          0.11936,
          0.11857,
          0.11779,
          0.11701,
          0.11624,
          0.11548,
          0.11473,
          0.11398,
          0.11324,
          0.11251,
          0.11179,
          0.11107,
          0.11036,
          0.10965,
          0.10896,
          0.10827,
          0.10758,
          0.1069,
          0.10623,
          0.10557,
          0.10491,
          0.10426,
          0.10361,
          0.10297,
          0.10234,
          0.10171,
          0.10108,
          0.10047,
          0.09985,
          0.09925,
          0.09865,
          0.09805,
          0.09746,
          0.09688,
          0.0963,
          0.09572,
          0.09459,
          0.09403,
          0.09348,
          0.09293,
          0.09239,
          0.09185,
          0.09131,
          0.09078,
          0.09026,
          0.08973,
          0.08922,
          0.08871,
          0.0882,
          0.0877,
          0.0872,
          0.0867,
          0.08621,
          0.08572,
          0.08524,
          0.08476,
          0.08429,
          0.08382,
          0.08335,
          0.08289,
          0.08243,
          0.08198,
          0.08153,
          0.08108,
          0.08064,
          0.07976,
          0.07933,
          0.0789,
          0.07847,
          0.07805,
          0.07763,
          0.07721,
          0.0768,
          0.07639,
          0.07599,
          0.07558,
          0.07518,
          0.07479,
          0.07439,
          0.074,
          0.07362,
          0.07323,
          0.07285,
          0.07247,
          0.0721,
          0.07173,
          0.07136,
          0.07099,
          0.07063,
          0.07027,
          0.06991,
          0.06955,
          0.0692,
          0.06885,
          0.0685,
          0.06816,
          0.06782,
          0.06748,
          0.06714,
          0.06681,
          0.06647,
          0.06614,
          0.06582,
          0.06549,
          0.06517,
          0.06485,
          0.06453,
          0.06422,
          0.0639,
          0.06359,
          0.06329,
          0.06298,
          0.06268,
          0.06237,
          0.06207,
          0.06178,
          0.06148,
          0.06119,
          0.0609,
          0.06061,
          0.06032,
          0.06004,
          0.05975,
          0.05947,
          0.05919,
          0.05892,
          0.05864,
          0.05837,
          0.0581,
          0.05783,
          0.05756,
          0.0573,
          0.05703,
          0.05677,
          0.05651,
          0.05625,
          0.056,
          0.05574,
          0.05549,
          0.05524,
          0.05499,
          0.05474,
          0.05449,
          0.05376,
          0.05352,
          0.05328,
          0.05305,
          0.05281,
          0.05258,
          0.05235,
          0.05212,
          0.05189,
          0.05166,
          0.05144,
          0.05121,
          0.05099,
          0.05077,
          0.05055,
          0.05033,
          0.05011,
          0.04989,
          0.04968,
          0.04947,
          0.04926,
          0.04905,
          0.04884,
          0.04863,
          0.04842,
          0.04822,
          0.04801,
          0.04781,
          0.04761,
          0.04741,
          0.04721,
          0.04701,
          0.04682,
          0.04662,
          0.04643,
          0.04624,
          0.04605,
          0.04586,
          0.04567,
          0.04548,
          0.04529,
          0.04511,
          0.04492,
          0.04474,
          0.04456,
          0.04438,
          0.0442,
          0.04402,
          0.04384,
          0.04366,
          0.04349,
          0.04331,
          0.04314,
          0.04297,
          0.0428,
          0.04263,
          0.04246,
          0.04229,
          0.04212,
          0.04195,
          0.04179,
          0.04163,
          0.04146,
          0.0413,
          0.04114,
          0.04098,
          0.04082,
          0.04066,
          0.0405,
          0.04034,
          0.04019,
          0.04003,
          0.03988,
          0.03973,
          0.03957,
          0.03942,
          0.03927,
          0.03912,
          0.03897,
          0.03882,
          0.03868,
          0.03853,
          0.03839,
          0.03824,
          0.0381,
          0.03795,
          0.03781,
          0.03767,
          0.03753,
          0.03739,
          0.03725,
          0.03711,
          0.03697,
          0.03684,
          0.0367,
          0.03657,
          0.03643,
          0.0363,
          0.03616,
          0.03603,
          0.0359,
          0.03577,
          0.03564,
          0.03551,
          0.03538,
          0.03525,
          0.03513,
          0.035,
          0.03487,
          0.03475,
          0.03462,
          0.0345,
          0.03438,
          0.03425,
          0.03413,
          0.03401,
          0.03389,
          0.03377,
          0.03365,
          0.03353,
          0.03341,
          0.03329,
          0.03318,
          0.03306,
          0.03295,
          0.03283,
          0.03272,
          0.0326,
          0.03249,
          0.03238,
          0.03226,
          0.03215,
          0.03204,
          0.03193,
          0.03182,
          0.03171,
          0.0316,
          0.0315,
          0.03139,
          0.03128,
          0.03117,
          0.03107,
          0.03096,
          0.03086,
          0.03075,
          0.03065,
          0.03055,
          0.03044,
          0.03034,
          0.03024,
          0.03014,
          0.03004,
          0.02994,
          0.02984,
          0.02974,
          0.02964,
          0.02954,
          0.02944,
          0.02935,
          0.02925,
          0.02915,
          0.02906,
          0.02896,
          0.02887,
          0.02877,
          0.02868,
          0.02859,
          0.02849,
          0.0284,
          0.02831,
          0.02822,
          0.02812,
          0.02803,
          0.02794,
          0.02785,
          0.02776,
          0.02767,
          0.02759,
          0.0275,
          0.02741,
          0.02732,
          0.02724,
          0.02715,
          0.02706,
          0.02698,
          0.02689,
          0.02681,
          0.02672,
          0.02664,
          0.02655,
          0.02647,
          0.02639,
          0.02631,
          0.02622,
          0.02614,
          0.02606,
          0.02598,
          0.0259,
          0.02582,
          0.02574,
          0.02566,
          0.02558,
          0.0255,
          0.02542,
          0.02534,
          0.02527,
          0.02519,
          0.02511,
          0.02504,
          0.02496,
          0.02488,
          0.02481,
          0.02473,
          0.02466,
          0.02458,
          0.02451,
          0.02444,
          0.02436,
          0.02429,
          0.02422,
          0.02414,
          0.02407,
          0.024,
          0.02393,
          0.02386,
          0.02379,
          0.02371,
          0.02364,
          0.02357,
          0.0235,
          0.02344,
          0.02337,
          0.0233,
          0.02323,
          0.02316,
          0.02309,
          0.02303,
          0.02296,
          0.02289,
          0.02282,
          0.02276,
          0.02269,
          0.02263,
          0.02256,
          0.02249,
          0.02243,
          0.02237,
          0.0223,
          0.02224,
          0.02217,
          0.02211,
          0.02205,
          0.02198,
          0.02192,
          0.02186,
          0.0218,
          0.02173,
          0.02167,
          0.02161,
          0.02155,
          0.02149,
          0.02143,
          0.02137,
          0.02131,
          0.02125,
          0.02119,
          0.02113,
          0.02107,
          0.02101,
          0.02095,
          0.02089,
          0.02083,
          0.02078,
          0.02072,
          0.02066,
          0.0206,
          0.02055,
          0.02049,
          0.02043,
          0.02038,
          0.02032,
          0.02027,
          0.02021,
          0.02016,
          0.0201,
          0.02004,
          0.01999,
          0.01994,
          0.01988,
          0.01983,
          0.01977,
          0.01972,
          0.01967,
          0.01961,
          0.01956,
          0.01951,
          0.01946,
          0.0194,
          0.01935,
          0.0193,
          0.01925,
          0.0192,
          0.01915,
          0.01909,
          0.01904,
          0.01899,
          0.01894,
          0.01889,
          0.01884,
          0.01879,
          0.01874,
          0.01869,
          0.01864,
          0.01859,
          0.01855,
          0.0185,
          0.01845,
          0.0184,
          0.01835,
          0.0183,
          0.01826,
          0.01821,
          0.01816,
          0.01811,
          0.01807,
          0.01802,
          0.01797,
          0.01793,
          0.01788,
          0.01784,
          0.01779,
          0.01774,
          0.0177,
          0.01765,
          0.01761,
          0.01756,
          0.01752,
          0.01747,
          0.01743,
          0.01738,
          0.01734,
          0.0173,
          0.01725,
          0.01721,
          0.01717,
          0.01712,
          0.01708,
          0.01704,
          0.01699,
          0.01695,
          0.01691,
          0.01687,
          0.01682,
          0.01678,
          0.01674,
          0.0167,
          0.01666,
          0.01661,
          0.01657,
          0.01653,
          0.01649,
          0.01645,
          0.01641,
          0.01637,
          0.01633,
          0.01629,
          0.01625,
          0.01621,
          0.01617,
          0.01613,
          0.01609,
          0.01605,
          0.01601,
          0.01597,
          0.01593,
          0.01589,
          0.01586,
          0.01582,
          0.01578,
          0.01574,
          0.0157,
          0.01567,
          0.01563,
          0.01559,
          0.01555,
          0.01551,
          0.01548,
          0.01544,
          0.0154,
          0.01537,
          0.01533,
          0.01529,
          0.01526,
          0.01522,
          0.01518,
          0.01515,
          0.01511,
          0.01508,
          0.01504,
          0.01501,
          0.01497,
          0.01493,
          0.0149,
          0.01486,
          0.01483,
          0.01479,
          0.01476,
          0.01473,
          0.01469,
          0.01466,
          0.01462,
          0.01459,
          0.01455,
          0.01452,
          0.01449,
          0.01445,
          0.01442,
          0.01439,
          0.01435,
          0.01432,
          0.01429,
          0.01425,
          0.01422,
          0.01419,
          0.01416,
          0.01412,
          0.01409,
          0.01406,
          0.01403,
          0.014,
          0.01396,
          0.01393,
          0.0139,
          0.01387,
          0.01384,
          0.01381,
          0.01377,
          0.01374,
          0.01371,
          0.01368,
          0.01365,
          0.01362,
          0.01359,
          0.01356,
          0.01353,
          0.0135,
          0.01347,
          0.01344,
          0.01341,
          0.01338,
          0.01335,
          0.01332,
          0.01329,
          0.01326,
          0.01323,
          0.0132,
          0.01317,
          0.01314,
          0.01311,
          0.01308,
          0.01305,
          0.01303,
          0.013,
          0.01297,
          0.01294,
          0.01291,
          0.01288,
          0.01286,
          0.01283,
          0.0128,
          0.01277,
          0.01274,
          0.01272,
          0.01269,
          0.01266,
          0.01263,
          0.01261,
          0.01258,
          0.01255,
          0.01252,
          0.0125,
          0.01247,
          0.01244,
          0.01242,
          0.01239,
          0.01236,
          0.01234,
          0.01231,
          0.01228,
          0.01226,
          0.01223,
          0.01221,
          0.01218,
          0.01215,
          0.01213,
          0.0121,
          0.01208,
          0.01205,
          0.01203,
          0.012,
          0.01197,
          0.01195,
          0.01192,
          0.0119,
          0.01187,
          0.01185,
          0.01182,
          0.0118,
          0.01177,
          0.01175,
          0.01173,
          0.0117,
          0.01168,
          0.01165,
          0.01163,
          0.0116,
          0.01158,
          0.01156,
          0.01153,
          0.01151,
          0.01148,
          0.01146,
          0.01144,
          0.01141,
          0.01139,
          0.01137,
          0.01134,
          0.01132,
          0.0113,
          0.01127,
          0.01125,
          0.0112,
          0.01118,
          0.01116,
          0.01114,
          0.01111,
          0.01109,
          0.01107,
          0.01105,
          0.01102,
          0.011,
          0.01098,
          0.01096,
          0.01093,
          0.01091,
          0.01089,
          0.01087,
          0.01085,
          0.01082,
          0.0108,
          0.01078,
          0.01076,
          0.01074,
          0.01072,
          0.0107,
          0.01067,
          0.01063,
          0.01059,
          0.01057,
          0.01055,
          0.01053,
          0.01051,
          0.01048,
          0.01046,
          0.01042,
          0.0104,
          0.01038,
          0.01036,
          0.01034,
          0.01032,
          0.01028,
          0.01026,
          0.01018,
          0.01014,
          0.01008,
          0.01004,
          0.01002,
          0.01,
          0.00999,
          0.00997,
          0.00995,
          0.00991,
          0.00989
        ],
        [
          0.74705,
          0.72833,
          0.73597,
          0.73411,
          0.73877,
          0.73517,
          0.74131,
          0.7522,
          0.75322,
          0.7629,
          0.75321,
          0.75289,
          0.74334,
          0.737,
          0.77005,
          0.74663,
          0.74569,
          0.74644,
          0.75375,
          0.75764,
          0.76651,
          0.74324,
          0.7384,
          0.73407,
          0.72884,
          0.72232,
          0.70431,
          0.71203,
          0.68221,
          0.67704,
          0.67995,
          0.6652,
          0.67081,
          0.67597,
          0.68506,
          0.68866,
          0.71152,
          0.70361,
          0.73261,
          0.71545,
          0.6971,
          0.67961,
          0.65712,
          0.62858,
          0.59886,
          0.61166,
          0.59724,
          0.60148,
          0.61181,
          0.6184,
          0.59558,
          0.60894,
          0.6154,
          0.61657,
          0.64455,
          0.65338,
          0.67783,
          0.72375,
          0.75593,
          0.76004,
          0.7561,
          0.76682,
          0.76113,
          0.78199,
          0.77133,
          0.74394,
          0.73778,
          0.71234,
          0.71199,
          0.69048,
          0.67026,
          0.66115,
          0.64365,
          0.65696,
          0.65931,
          0.64613,
          0.66762,
          0.65952,
          0.67454,
          0.69069,
          0.70954,
          0.69504,
          0.72618,
          0.72991,
          0.72349,
          0.72736,
          0.68986,
          0.68919,
          0.68827,
          0.6841,
          0.68805,
          0.70895,
          0.72674,
          0.73831,
          0.74139,
          0.76107,
          0.7385,
          0.75234,
          0.73988,
          0.74229,
          0.73304,
          0.73524,
          0.71462,
          0.68174,
          0.65552,
          0.6305,
          0.61782,
          0.59361,
          0.60445,
          0.62975,
          0.64052,
          0.65135,
          0.62749,
          0.6065,
          0.57204,
          0.52524,
          0.52106,
          0.53088,
          0.55651,
          0.61932,
          0.66141,
          0.6937,
          0.73418,
          0.73922,
          0.75586,
          0.75942,
          0.74752,
          0.72186,
          0.71193,
          0.72383,
          0.71076,
          0.69542,
          0.69031,
          0.69895,
          0.69899,
          0.705,
          0.70872,
          0.71397,
          0.70919,
          0.69108,
          0.71081,
          0.69797,
          0.67948,
          0.69024,
          0.69573,
          0.69661,
          0.65613,
          0.62745,
          0.60287,
          0.58922,
          0.56595,
          0.57677,
          0.62104,
          0.64169,
          0.6813,
          0.74081,
          0.75214,
          0.80819,
          0.78524,
          0.76432,
          0.73952,
          0.71165,
          0.67752,
          0.69423,
          0.68763,
          0.72105,
          0.75371,
          0.77146,
          0.80222,
          0.78978,
          0.78822,
          0.78532,
          0.79654,
          0.82063,
          0.80661,
          0.8136,
          0.82342,
          0.79299,
          0.80584,
          0.78301,
          0.76022,
          0.73015,
          0.71141,
          0.71953,
          0.7251,
          0.74165,
          0.78127,
          0.81184,
          0.82447,
          0.81375,
          0.80803,
          0.82183,
          0.817,
          0.7884,
          0.76876,
          0.72519,
          0.66368,
          0.62677,
          0.61922,
          0.59532,
          0.62786,
          0.63469,
          0.64891,
          0.6787,
          0.69399,
          0.68851,
          0.69266,
          0.69987,
          0.7152,
          0.74072,
          0.7471,
          0.74932,
          0.74947,
          0.68209,
          0.63656,
          0.55906,
          0.53868,
          0.49743,
          0.49872,
          0.5138,
          0.5352,
          0.59436,
          0.63211,
          0.67361,
          0.68978,
          0.66031,
          0.65469,
          0.63538,
          0.63068,
          0.60152,
          0.62502,
          0.64251,
          0.66469,
          0.67702,
          0.70682,
          0.72397,
          0.7285,
          0.75741,
          0.75853,
          0.76436,
          0.79981,
          0.80093,
          0.80724,
          0.77304,
          0.79184,
          0.74634,
          0.72636,
          0.65482,
          0.60335,
          0.55481,
          0.52175,
          0.49279,
          0.45384,
          0.45697,
          0.43827,
          0.446,
          0.41868,
          0.39288,
          0.34422,
          0.28701,
          0.23301,
          0.19041,
          0.14344,
          0.1112,
          0.1109,
          0.11932,
          0.1455,
          0.19835,
          0.26607,
          0.32918,
          0.40317,
          0.46196,
          0.51219,
          0.56624,
          0.58372,
          0.62506,
          0.63739,
          0.63826,
          0.66257,
          0.64572,
          0.66128,
          0.66108,
          0.66736,
          0.72345,
          0.73703,
          0.76802,
          0.75809,
          0.77194,
          0.76808,
          0.76433,
          0.77543,
          0.73188,
          0.70698,
          0.6817,
          0.6096,
          0.58028,
          0.53634,
          0.52367,
          0.54489,
          0.57065,
          0.62262,
          0.67975,
          0.7299,
          0.77358,
          0.81736,
          0.84594,
          0.85389,
          0.82995,
          0.84294,
          0.81632,
          0.80079,
          0.78423,
          0.80612,
          0.78998,
          0.79659,
          0.81023,
          0.81302,
          0.76094,
          0.73049,
          0.69265,
          0.66552,
          0.66085,
          0.68895,
          0.70373,
          0.73282,
          0.77701,
          0.83342,
          0.848,
          0.83302,
          0.79289,
          0.76245,
          0.73223,
          0.7033,
          0.68118,
          0.71574,
          0.7073,
          0.72939,
          0.70906,
          0.70204,
          0.69461,
          0.69303,
          0.71534,
          0.76296,
          0.81082,
          0.79358,
          0.814,
          0.81444,
          0.82277,
          0.82602,
          0.80526,
          0.81292,
          0.84025,
          0.83774,
          0.8501,
          0.87285,
          0.87214,
          0.86393,
          0.85097,
          0.83182,
          0.87302,
          0.76103,
          0.78984,
          0.819,
          0.84227,
          0.82343,
          0.81378,
          0.80686,
          0.77261,
          0.86179,
          0.85168,
          0.84329,
          0.86622,
          0.86745,
          0.86,
          0.85237,
          0.85189,
          0.85069,
          0.85307,
          0.87988,
          0.8448,
          0.85827,
          0.83193,
          0.83846,
          0.85314,
          0.83682,
          0.84781,
          0.84524,
          0.86339,
          0.84289,
          0.84442,
          0.83389,
          0.83872,
          0.85363,
          0.83982,
          0.83239,
          0.82895,
          0.83538,
          0.82293,
          0.77763,
          0.76488,
          0.7218,
          0.67391,
          0.65228,
          0.61798,
          0.62749,
          0.64083,
          0.67791,
          0.71503,
          0.72787,
          0.78227,
          0.79596,
          0.79573,
          0.79894,
          0.80734,
          0.79009,
          0.80425,
          0.80848,
          0.78692,
          0.79965,
          0.80902,
          0.83582,
          0.86494,
          0.83263,
          0.8368,
          0.85514,
          0.84417,
          0.80531,
          0.79734,
          0.78744,
          0.79402,
          0.80615,
          0.7962,
          0.80053,
          0.82517,
          0.83076,
          0.83143,
          0.81966,
          0.85657,
          0.83149,
          0.81349,
          0.82819,
          0.8131,
          0.81589,
          0.80843,
          0.75118,
          0.75032,
          0.71866,
          0.70286,
          0.70526,
          0.66526,
          0.68412,
          0.65428,
          0.68166,
          0.69388,
          0.67827,
          0.67386,
          0.65933,
          0.65188,
          0.63199,
          0.63651,
          0.63824,
          0.65642,
          0.66763,
          0.68319,
          0.66811,
          0.64312,
          0.63146,
          0.61234,
          0.61602,
          0.65721,
          0.71353,
          0.7434,
          0.81164,
          0.85711,
          0.81916,
          0.82808,
          0.8329,
          0.83992,
          0.84314,
          0.8454,
          0.84039,
          0.82525,
          0.84677,
          0.84195,
          0.81446,
          0.81904,
          0.84082,
          0.82375,
          0.82006,
          0.81755,
          0.82628,
          0.8184,
          0.8315,
          0.82622,
          0.82034,
          0.83206,
          0.83022,
          0.83443,
          0.82972,
          0.83194,
          0.83905,
          0.81789,
          0.82062,
          0.82114,
          0.81786,
          0.78341,
          0.77777,
          0.76801,
          0.78643,
          0.77742,
          0.77245,
          0.7986,
          0.79969,
          0.81448,
          0.8311,
          0.81964,
          0.82972,
          0.82817,
          0.83678,
          0.81991,
          0.8223,
          0.82224,
          0.81157,
          0.83565,
          0.81279,
          0.81491,
          0.82435,
          0.81359,
          0.82195,
          0.82439,
          0.80366,
          0.83073,
          0.82859,
          0.8115,
          0.79727,
          0.79489,
          0.82802,
          0.82273,
          0.81316,
          0.81272,
          0.80475,
          0.79298,
          0.8156,
          0.8034,
          0.81089,
          0.81552,
          0.78845,
          0.79234,
          0.78874,
          0.7872,
          0.81107,
          0.81331,
          0.78748,
          0.79906,
          0.79753,
          0.77017,
          0.78086,
          0.78518,
          0.7597,
          0.76683,
          0.76928,
          0.7672,
          0.72681,
          0.74146,
          0.71927,
          0.34628,
          0.66233,
          0.60799,
          0.56101,
          0.44104,
          0.37083,
          0.26556,
          0.19496,
          0.1263,
          0.08867,
          0.08824,
          0.10796,
          0.15234,
          0.24007,
          0.3216,
          0.42524,
          0.54563,
          0.64722,
          0.72688,
          0.77256,
          0.80932,
          0.82136,
          0.83921,
          0.87239,
          0.83279,
          0.82706,
          0.80332,
          0.78397,
          0.75312,
          0.70894,
          0.65601,
          0.62947,
          0.63649,
          0.64444,
          0.71308,
          0.74067,
          0.77971,
          0.7998,
          0.82901,
          0.86449,
          0.84811,
          0.8509,
          0.83612,
          0.85263,
          0.85581,
          0.84938,
          0.85804,
          0.8373,
          0.83799,
          0.83588,
          0.84665,
          0.82002,
          0.8495,
          0.82215,
          0.84703,
          0.85233,
          0.83436,
          0.83268,
          0.84413,
          0.83216,
          0.8481,
          0.79226,
          0.82042,
          0.83785,
          0.81669,
          0.79006,
          0.76252,
          0.71578,
          0.5919,
          0.55316,
          0.4842,
          0.43894,
          0.44306,
          0.49106,
          0.57203,
          0.6363,
          0.73324,
          0.79417,
          0.80647,
          0.81173,
          0.83397,
          0.84744,
          0.80559,
          0.8287,
          0.82525,
          0.8314,
          0.83089,
          0.83534,
          0.84403,
          0.82564,
          0.81008,
          0.81507,
          0.82243,
          0.83719,
          0.85073,
          0.80537,
          0.83201,
          0.81702,
          0.82028,
          0.82126,
          0.84247,
          0.80299,
          0.81626,
          0.81816,
          0.8034,
          0.80469,
          0.83474,
          0.83849,
          0.81493,
          0.84664,
          0.80975,
          0.82496,
          0.83648,
          0.83353,
          0.82128,
          0.82034,
          0.80677,
          0.83067,
          0.81831,
          0.82775,
          0.82211,
          0.8143,
          0.79287,
          0.84259,
          0.81268,
          0.82615,
          0.81885,
          0.82328,
          0.83451,
          0.80709,
          0.82268,
          0.7984,
          0.81611,
          0.81684,
          0.80959,
          0.8217,
          0.81761,
          0.81341,
          0.82046,
          0.81036,
          0.82589,
          0.80725,
          0.83053,
          0.81886,
          0.80118,
          0.80369,
          0.80522,
          0.8261,
          0.83591,
          0.79885,
          0.78785,
          0.81538,
          0.79362,
          0.80913,
          0.79417,
          0.80757,
          0.79788,
          0.80586,
          0.80194,
          0.7974,
          0.80824,
          0.80901,
          0.81159,
          0.80948,
          0.78536,
          0.81398,
          0.79588,
          0.78247,
          0.81177,
          0.795,
          0.81664,
          0.80391,
          0.79613,
          0.79722,
          0.79219,
          0.80898,
          0.81314,
          0.78991,
          0.79081,
          0.78995,
          0.79232,
          0.78644,
          0.79149,
          0.8143,
          0.77944,
          0.79458,
          0.79121,
          0.80425,
          0.78172,
          0.79384,
          0.78016,
          0.80285,
          0.80166,
          0.79063,
          0.76645,
          0.78472,
          0.78855,
          0.78577,
          0.76956,
          0.78914,
          0.78457,
          0.78557,
          0.80303,
          0.77139,
          0.78845,
          0.76954,
          0.77455,
          0.7805,
          0.78417,
          0.77236,
          0.7741,
          0.78218,
          0.76562,
          0.77264,
          0.76678,
          0.76797,
          0.77159,
          0.75295,
          0.78122,
          0.76323,
          0.7723,
          0.77929,
          0.77036,
          0.75005,
          0.75696,
          0.77515,
          0.77427,
          0.76112,
          0.77986,
          0.74801,
          0.74966,
          0.76542,
          0.74004,
          0.76277,
          0.74503,
          0.73365,
          0.74296,
          0.00733,
          0.71989,
          0.74209,
          0.72297,
          0.72635,
          0.71436,
          0.6861,
          0.7058,
          0.70331,
          0.70979,
          0.71097,
          0.72699,
          0.75467,
          0.74016,
          0.71538,
          0.71996,
          0.71751,
          0.72953,
          0.73293,
          0.7231,
          0.71992,
          0.74967,
          0.73501,
          0.71241,
          0.69629,
          0.72961,
          0.6921,
          0.71945,
          0.68466,
          0.68907,
          0.69631,
          0.71294,
          0.70859,
          0.68997,
          0.69426,
          0.67787,
          0.6833,
          0.70198,
          0.67821,
          0.68751,
          0.69004,
          0.66936,
          0.66025,
          0.66129,
          0.66146,
          0.66375,
          0.62504,
          0.64363,
          0.66478,
          0.66906,
          0.63574,
          0.62364,
          0.64284,
          0.62106,
          0.62308,
          0.63291,
          0.61419,
          0.61468,
          0.62454,
          0.607,
          0.58952,
          0.59653,
          0.59921,
          0.57014,
          0.57988,
          0.56187,
          0.56905,
          0.54762,
          0.55219,
          0.57046,
          0.54226,
          0.53737,
          0.51808,
          0.51673,
          0.50954,
          0.48862,
          0.48116,
          0.48416,
          0.47443,
          0.46224,
          0.46457,
          0.42766,
          0.4311,
          0.42749,
          0.41742,
          0.41492,
          0.39249,
          0.36824,
          0.35227,
          0.33803,
          0.32239,
          0.29893,
          0.2917,
          0.27811,
          0.27155,
          0.24657,
          0.22946,
          0.22221,
          0.20683,
          0.18534,
          0.16464,
          0.14539,
          0.13897,
          0.11677,
          0.10948,
          0.08713,
          0.08468,
          0.06916,
          0.05331,
          0.03871,
          0.03081,
          0.02777,
          0.0182,
          0.01602,
          0.01143,
          0.00869,
          0.009,
          0.00616,
          0.00657,
          0.00635,
          0.00391,
          0.00581,
          0.00461,
          0.00396,
          0.00383,
          0.00571,
          0.00513,
          0.00381,
          0.00666,
          0.00138,
          0.00316,
          0.00533,
          0.00502,
          0.00615,
          0.00304,
          0.00421,
          0.00484,
          0.00257,
          0.00323,
          0.00776,
          0.00495,
          0.00659,
          0.00981,
          0.01452,
          0.01981,
          0.0312,
          0.16532,
          0.05457,
          0.06733,
          0.08632,
          0.11178,
          0.12484,
          0.16224,
          0.17762,
          0.19681,
          0.21318,
          0.24953,
          0.27966,
          0.28375,
          0.31272,
          0.32545,
          0.36025,
          0.38485,
          0.39772,
          0.41127,
          0.42789,
          0.46951,
          0.48706,
          0.49905,
          0.49453,
          0.52037,
          0.55136,
          0.57175,
          0.57454,
          0.57277,
          0.59333,
          0.60921,
          0.63275,
          0.64785,
          0.61905,
          0.62491,
          0.65487,
          0.65967,
          0.66848,
          0.65989,
          0.67713,
          0.68623,
          0.68884,
          0.70844,
          0.69553,
          0.70392,
          0.70106,
          0.70615,
          0.7243,
          0.72824,
          0.71587,
          0.7254,
          0.75423,
          0.7554,
          0.75302,
          0.77099,
          0.74493,
          0.80684,
          0.76249,
          0.77087,
          0.75834,
          0.74705,
          0.77,
          0.79122,
          0.79744,
          0.79082,
          0.79802,
          0.80126,
          0.77191,
          0.80857,
          0.80677,
          0.79582,
          0.79748,
          0.78049,
          0.80958,
          0.78869,
          0.79883,
          0.80925,
          0.82183,
          0.81298,
          0.81853,
          0.80081,
          0.76993,
          0.82201,
          0.81244,
          0.81292,
          0.83032,
          0.83027,
          0.83307,
          0.79998,
          0.84238,
          0.81792,
          0.83147,
          0.79136,
          0.81204,
          0.84682,
          0.82267,
          0.82854,
          0.8135,
          0.81918,
          0.85193,
          0.16433,
          0.83162,
          0.84131,
          0.81657,
          0.82569,
          0.84006,
          0.81135,
          0.82415,
          0.83361,
          0.81473,
          0.8315,
          0.8384,
          0.81535,
          0.83582,
          0.85821,
          0.81247,
          0.81098,
          0.80501,
          0.84656,
          0.83462,
          0.82607,
          0.82105,
          0.82848,
          0.82169,
          0.83654,
          0.84514,
          0.86283,
          0.84615,
          0.84915,
          0.83602,
          0.84544,
          0.82415,
          0.84375,
          0.81921,
          0.82394,
          0.84913,
          0.85484,
          0.84277,
          0.82993,
          0.85114,
          0.82165,
          0.86861,
          0.82382,
          0.84039,
          0.84315,
          0.85041,
          0.82309,
          0.83497,
          0.83454,
          0.91938,
          0.85246,
          0.83718,
          0.84507,
          0.86291,
          0.81645,
          0.84029,
          0.84531,
          0.85045,
          0.82835,
          0.85868,
          0.84073,
          0.84172,
          0.8615,
          0.85539,
          0.80958,
          0.84861,
          0.82459,
          0.86532,
          0.84318,
          0.83104,
          0.82047,
          0.82474,
          0.83593,
          0.84398,
          0.84063,
          0.83668,
          0.85353,
          0.83867,
          0.84837,
          0.85436,
          0.86091,
          0.84932,
          0.85242,
          0.84969,
          0.82539,
          0.86823,
          0.86484,
          0.83677,
          0.85693,
          0.83667,
          0.83316,
          0.82219,
          0.87368,
          0.81213,
          0.85519,
          0.83648,
          0.82494,
          0.84914,
          0.83944,
          0.83879,
          0.82284,
          0.82469,
          0.81769,
          0.84073,
          0.83407,
          0.86237,
          0.82728,
          0.85982,
          0.85817,
          0.83793,
          0.82144,
          0.83117,
          0.82383,
          0.82658,
          0.82851,
          0.81467,
          0.86034,
          0.86027,
          0.85998,
          0.8389,
          0.84065,
          0.86057,
          0.88183,
          0.86929,
          0.81424,
          0.80276,
          0.83488,
          0.83156,
          0.85722,
          0.83843,
          0.84636,
          0.87928,
          0.82087,
          0.84304,
          0.83424,
          0.85073,
          0.82319,
          0.8203,
          0.83432,
          0.8348,
          0.8533,
          0.81702,
          0.86279,
          0.83326,
          0.85544,
          0.8344,
          0.84924,
          0.86916,
          0.84918,
          0.84138,
          0.84555,
          0.85458,
          0.86259,
          0.85638,
          0.8463,
          0.8539,
          0.8514,
          0.84841,
          0.82998,
          0.83141,
          0.83202,
          0.85866,
          0.8341,
          0.82309,
          0.85706,
          0.86903,
          0.82749,
          0.8539,
          0.84835,
          0.8377,
          0.86041,
          0.83845,
          0.82977,
          0.83547,
          0.84574,
          0.8349,
          0.84484,
          0.85407,
          0.85418,
          0.86399,
          0.82734,
          0.83434,
          0.84437,
          0.86557,
          0.83979,
          0.84671,
          0.8381,
          0.85068,
          0.8312,
          0.83467,
          0.83896,
          0.84475,
          0.82665,
          0.83463,
          0.84429,
          0.84028,
          0.84398,
          0.85265,
          0.84454,
          0.8451,
          0.84084,
          0.84572,
          0.83047,
          0.86932,
          0.82989,
          0.84161,
          0.84805,
          0.82356,
          0.86683,
          0.83619,
          0.84462,
          0.82768,
          0.83138,
          0.82073,
          0.83024,
          0.84635,
          0.8292,
          0.84607,
          0.83916,
          0.83484,
          0.82811,
          0.83586,
          0.8394,
          0.83186,
          0.86721,
          0.8087,
          0.83451,
          0.82728,
          0.85366,
          0.83779,
          0.84334,
          0.8396,
          0.85172,
          0.81702,
          0.81852,
          0.83286,
          0.84831,
          0.85116,
          0.85642,
          0.85258,
          0.86776,
          0.86402,
          0.83956,
          0.82777,
          0.85644,
          0.84642,
          0.81167,
          0.82497,
          0.83243,
          0.82158,
          0.84605,
          0.81775,
          0.84489,
          0.83853,
          0.85893,
          0.85912,
          0.82941,
          0.89233,
          0.86288,
          0.83723,
          0.84745,
          0.8625,
          0.83246,
          0.8655,
          0.83061,
          0.85226,
          0.84863,
          0.84962,
          0.85317,
          0.85149,
          0.83161,
          0.83043,
          0.83586,
          0.83727,
          0.81441,
          0.86308,
          0.85637,
          0.84814,
          0.83617,
          0.84745,
          0.83937,
          0.82605,
          0.84233,
          0.84132,
          0.84529,
          0.84006,
          0.85001,
          0.83555,
          0.843,
          0.8399,
          0.86683,
          0.83946,
          0.8264,
          0.81517,
          0.84007,
          0.83007,
          0.84919,
          0.86992,
          0.81892,
          0.84095,
          0.82573,
          0.83651,
          0.81236,
          0.82105,
          0.82151,
          0.81992,
          0.83113,
          0.83129,
          0.82188,
          0.8253,
          0.82229,
          0.83995,
          0.83252,
          0.83937,
          0.84927,
          0.83423,
          0.8307,
          0.81345,
          0.82733,
          0.857,
          0.83158,
          0.82142,
          0.81614,
          0.85001,
          0.85237,
          0.82111,
          0.81816,
          0.81045,
          0.85737,
          0.82679,
          0.8635,
          0.83859,
          0.84787,
          0.82957,
          0.81273,
          0.81783,
          0.84925,
          0.83123,
          0.83148,
          0.81038,
          0.83762,
          0.83834,
          0.83032,
          0.81802,
          0.85497,
          0.82632,
          0.84997,
          0.82142,
          0.86348,
          0.844,
          0.82107,
          0.82199,
          0.84319,
          0.83627,
          0.80807,
          0.8332,
          0.8077,
          0.85357,
          0.86195,
          0.8206,
          0.83187,
          0.81165,
          0.82553,
          0.82695,
          0.81185,
          0.82299,
          0.83065,
          0.81662,
          0.7883,
          0.80723,
          0.84693,
          0.80524,
          0.81186,
          0.82016,
          0.79808,
          0.79801,
          0.80651,
          0.82193,
          0.84105,
          0.81763,
          0.78261,
          0.79406,
          0.80602,
          0.81259,
          0.74816,
          0.77845,
          0.78974,
          0.79535,
          0.78328,
          0.75979,
          0.7682,
          0.8,
          0.78234,
          0.80301,
          0.78632,
          0.82194,
          0.78674,
          0.80413,
          0.8194,
          0.81853,
          0.8185,
          0.83617,
          0.831,
          0.81635,
          0.813,
          0.80914,
          0.81207,
          0.83023,
          0.8334,
          0.82576,
          0.82988,
          0.82992,
          0.82703,
          0.77971,
          0.82764,
          0.83101,
          0.81132,
          0.82627,
          0.80617,
          0.82349,
          0.81055,
          0.8199,
          0.83403,
          0.79958,
          0.82176,
          0.83976,
          0.83936,
          0.80916,
          0.81405,
          0.81089,
          0.83062,
          0.82853,
          0.84314,
          0.82455,
          0.83495,
          0.83601,
          0.8586,
          0.82539,
          0.83757,
          0.84153,
          0.81581,
          0.8246,
          0.81354,
          0.82401,
          0.82383,
          0.81513,
          0.81145,
          0.83366,
          0.84098,
          0.80888,
          0.824,
          0.84353,
          0.84465,
          0.82866,
          0.83199,
          0.82616,
          0.86161,
          0.82357,
          0.8344,
          0.82574,
          0.80618,
          0.81667,
          0.79259,
          0.81355,
          0.83267,
          0.80102,
          0.82309,
          0.82247,
          0.82274,
          0.82921,
          0.83765,
          0.79964,
          0.83527,
          0.8232,
          0.80284,
          0.81673,
          0.86533,
          0.82638,
          0.81565,
          0.83923,
          0.82378,
          0.83445,
          0.78423,
          0.83726,
          0.85181,
          0.81633,
          0.78871,
          0.81972,
          0.84265,
          0.80716,
          0.84896,
          0.86822,
          0.84003,
          0.81497,
          0.82126,
          0.82661,
          0.88404,
          0.82236,
          0.86405,
          0.81647,
          0.8426,
          0.81704,
          0.81763,
          0.84245,
          0.82048,
          0.82032,
          0.81404,
          0.79738,
          0.85536,
          0.83572,
          0.83822,
          0.81445,
          0.81189,
          0.84126,
          0.82048,
          0.81238,
          0.82169,
          0.78544,
          0.81936,
          0.81874,
          0.84308,
          0.81362,
          0.85903,
          0.83077,
          0.81535,
          0.81724,
          0.8247,
          0.86523,
          0.81239,
          0.80596,
          0.86233,
          0.82714,
          0.79468,
          0.82593,
          0.82108,
          0.79199,
          0.82587,
          0.81775,
          0.83291,
          0.82629,
          0.86919,
          0.85298,
          0.84527,
          0.83198,
          0.8064,
          0.81781,
          0.85562,
          0.85149,
          0.80787,
          0.80923,
          0.83832,
          0.77664,
          0.83099,
          0.79869,
          0.80713,
          0.81128,
          0.79272,
          0.88328,
          0.8234,
          0.83418,
          0.82912,
          0.83403,
          0.8223,
          0.84658,
          0.85514,
          0.85571,
          0.84974,
          0.80199,
          0.79322,
          0.79453,
          0.82346,
          0.7891,
          0.85175,
          0.83481,
          0.84625,
          0.80497,
          0.81676,
          0.81994,
          0.84083,
          0.84027,
          0.8371,
          0.81565,
          0.78898,
          0.81632,
          0.79988,
          0.85138,
          0.80452,
          0.81584,
          0.82603,
          0.84406,
          0.82037,
          0.81011,
          0.806,
          0.81645,
          0.80074,
          0.79177,
          0.82534,
          0.80805,
          0.81752,
          0.85149,
          0.82665,
          0.82971,
          0.81278,
          0.81547,
          0.82811,
          0.81429,
          0.8166,
          0.79131,
          0.79975,
          0.78196,
          0.83067,
          0.81742,
          0.83727,
          0.84866,
          0.83798,
          0.81413,
          0.78988,
          0.81805,
          0.84468,
          0.78029,
          0.82549,
          0.81458,
          0.82314,
          0.85041,
          0.80992,
          0.78754,
          0.84723,
          0.82062,
          0.8137,
          0.81177,
          0.82562,
          0.82858,
          0.83458,
          0.84848,
          0.83698,
          0.83285,
          0.81753,
          0.83163,
          0.78515,
          0.79971,
          0.8152,
          0.78297,
          0.80934,
          0.83287,
          0.82245,
          0.84105,
          0.83035,
          0.84203,
          0.80686,
          0.80632,
          0.86871,
          0.81701,
          0.83528,
          0.80959,
          0.8168,
          0.82731,
          0.82655,
          0.81484,
          0.8133,
          0.84633,
          0.8032,
          0.8033,
          0.8269,
          0.82717,
          0.80317,
          0.80524,
          0.82849,
          0.80962,
          0.83181,
          0.80294,
          0.79873,
          0.81707,
          0.84061,
          0.85406,
          0.81805,
          0.8518,
          0.81641,
          0.85528,
          0.77858,
          0.83042,
          0.81972,
          0.81416,
          0.79499,
          0.78969,
          0.80186,
          0.78551,
          0.81357,
          0.77734,
          0.83654,
          0.81134,
          0.83047,
          0.80974,
          0.7899,
          0.81222,
          0.82183,
          0.82054,
          0.83888,
          0.80263,
          0.78069,
          0.84267,
          0.82939,
          0.83803,
          0.79446,
          0.83202,
          0.83276,
          0.80336,
          0.79706,
          0.80162,
          0.84362,
          0.8252,
          0.81206,
          0.83238,
          0.79112,
          0.79824,
          0.81717,
          0.85268,
          0.80023,
          0.82362,
          0.82743,
          0.88259,
          0.83815,
          0.81549,
          0.83655,
          0.87361,
          0.83086,
          0.84246,
          0.77742,
          0.88975,
          0.79073,
          0.77685,
          0.82865,
          0.83818,
          0.85039,
          0.83399,
          0.83086,
          0.7962,
          0.79469,
          0.8317,
          0.85582,
          0.8297,
          0.83627,
          0.88688,
          0.88374,
          0.88031,
          0.87031,
          0.84959,
          0.80968,
          0.67557,
          0.37762,
          0.13211,
          0.38352,
          0.63706,
          0.96954,
          0.81049,
          0.84406,
          0.85134,
          0.8615,
          0.85935,
          0.86044,
          0.86489,
          0.8694,
          0.85836,
          0.86279,
          0.85986,
          0.86169,
          0.85964,
          0.86068,
          0.86142,
          0.85646,
          0.84162,
          0.83661,
          0.83153,
          0.84207,
          0.85038,
          0.84963,
          0.85173,
          0.85056,
          0.84939,
          0.86083,
          0.84697,
          0.85381,
          0.84407,
          0.84556,
          0.84807,
          0.84485,
          0.85013,
          0.83685,
          0.84654,
          0.83955,
          0.8427,
          0.83162,
          0.83767,
          0.83853,
          0.83933,
          0.83618,
          0.74467,
          0.65261,
          0.83555,
          0.82935,
          0.83823,
          0.82851,
          0.82244,
          0.82935,
          0.8364,
          0.83147,
          0.82853,
          0.8294,
          0.82846,
          0.8319,
          0.82845,
          0.81933,
          0.82149,
          0.81885,
          0.82326,
          0.82127,
          0.82874,
          0.81698,
          0.82041,
          0.82087,
          0.81903,
          0.82135,
          0.82248,
          0.81837,
          0.81637,
          0.8139,
          0.81288,
          0.81396,
          0.8112,
          0.80994,
          0.809,
          0.81432,
          0.8103,
          0.80828,
          0.80808,
          0.80735,
          0.80866,
          0.80786,
          0.80346,
          0.80627,
          0.80337,
          0.80436,
          0.80338,
          0.80018,
          0.80418,
          0.80094,
          0.79859,
          0.79491,
          0.8016,
          0.78884,
          0.79786,
          0.79093,
          0.79522,
          0.79235,
          0.79205,
          0.78964,
          0.79658,
          0.78771,
          0.7982,
          0.7946,
          0.79099,
          0.78667,
          0.79485,
          0.78739,
          0.78959,
          0.7869,
          0.78241,
          0.78735,
          0.78631,
          0.78153,
          0.78465,
          0.78352,
          0.77678,
          0.77422,
          0.77574,
          0.78207,
          0.77421,
          0.77472,
          0.77535,
          0.77668,
          0.77263,
          0.77387,
          0.77494,
          0.77084,
          0.76814,
          0.77499,
          0.76517,
          0.76717,
          0.76824,
          0.76931,
          0.76986,
          0.76453,
          0.77233,
          0.77254,
          0.76463,
          0.77393,
          0.77095,
          0.76273,
          0.77267,
          0.7641,
          0.76356,
          0.7565,
          0.75978,
          0.7559,
          0.75942,
          0.75921,
          0.76087,
          0.762,
          0.76202,
          0.75214,
          0.76123,
          0.76099,
          0.76076,
          0.76951,
          0.75931,
          0.7541,
          0.74942,
          0.76155,
          0.75918,
          0.75683,
          0.76196,
          0.75254,
          0.75753,
          0.76067,
          0.74942,
          0.75719,
          0.7537,
          0.75307,
          0.75528,
          0.75498,
          0.75063,
          0.76144,
          0.75142,
          0.75644,
          0.74961,
          0.75313,
          0.75074,
          0.75556,
          0.75559,
          0.74769,
          0.75669,
          0.75461,
          0.74899,
          0.75837,
          0.75501,
          0.74981,
          0.75562,
          0.75824,
          0.76075,
          0.75955,
          0.7538,
          0.75376,
          0.75309,
          0.75539,
          0.75355,
          0.75709,
          0.75109,
          0.76026,
          0.75438,
          0.7588,
          0.75607,
          0.7583,
          0.75674,
          0.75844,
          0.75768,
          0.75619,
          0.75336,
          0.75508,
          0.75946,
          0.76248,
          0.75905,
          0.75823,
          0.75741,
          0.75731,
          0.75966,
          0.75692,
          0.75526,
          0.76191,
          0.75738,
          0.75631,
          0.75714,
          0.75487,
          0.7607,
          0.75474,
          0.75955,
          0.75627,
          0.76119,
          0.75841,
          0.75899,
          0.75972,
          0.75781,
          0.75663,
          0.75915,
          0.75831,
          0.75893,
          0.7563,
          0.75097,
          0.75644,
          0.7584,
          0.75427,
          0.75865,
          0.7569,
          0.75278,
          0.75321,
          0.75627,
          0.75331,
          0.75705,
          0.75271,
          0.75867,
          0.75444,
          0.75612,
          0.75683,
          0.75065,
          0.75069,
          0.75289,
          0.74945,
          0.75043,
          0.74607,
          0.74964,
          0.75447,
          0.74905,
          0.7512,
          0.75264,
          0.74452,
          0.74934,
          0.74972,
          0.74957,
          0.74808,
          0.7455,
          0.74993,
          0.74922,
          0.74392,
          0.74437,
          0.74561,
          0.74731,
          0.74489,
          0.74395,
          0.7482,
          0.74271,
          0.74051,
          0.74845,
          0.7392,
          0.74094,
          0.73745,
          0.73671,
          0.73598,
          0.73941,
          0.73747,
          0.73443,
          0.73656,
          0.73021,
          0.73345,
          0.73458,
          0.73439,
          0.73292,
          0.73147,
          0.7315,
          0.65725,
          0.5831,
          0.73026,
          0.72724,
          0.73404,
          0.72588,
          0.7254,
          0.72524,
          0.72356,
          0.72944,
          0.72351,
          0.72266,
          0.72015,
          0.71753,
          0.71569,
          0.71926,
          0.71996,
          0.72067,
          0.71733,
          0.71133,
          0.71935,
          0.71121,
          0.70756,
          0.71026,
          0.71419,
          0.00763,
          0.71089,
          0.71032,
          0.70603,
          0.70383,
          0.7091,
          0.70441,
          0.70942,
          0.70107,
          0.70399,
          0.70511,
          0.69952,
          0.69362,
          0.69594,
          0.69828,
          0.69527,
          0.69862,
          0.69627,
          0.69506,
          0.69386,
          0.69318,
          0.69249,
          0.6875,
          0.6864,
          0.6864,
          0.26812,
          0.68563,
          0.67901,
          0.68786,
          0.68741,
          0.68032,
          0.67746,
          0.67456,
          0.67922,
          0.66933,
          0.67692,
          0.6736,
          0.67501,
          0.66698,
          0.66966,
          0.6694,
          0.66915,
          0.66874,
          0.66665,
          0.66467,
          0.66364,
          0.66128,
          0.66068,
          0.66185,
          0.6607,
          0.65977,
          0.65557,
          0.65971,
          0.65529,
          0.65634,
          0.65641,
          0.65108,
          0.65202,
          0.64536,
          0.6492,
          0.64953,
          0.64068,
          0.64314,
          0.64361,
          0.63993,
          0.64488,
          0.63625,
          0.63905,
          0.63834,
          0.63443,
          0.62828,
          0.63403,
          0.63182,
          0.62958,
          0.63806,
          0.62209,
          0.62927,
          0.62997,
          0.62298,
          0.62269,
          0.62013,
          0.62447,
          0.61879,
          0.62059,
          0.61222,
          0.60927,
          0.61482,
          0.61118,
          0.61255,
          0.61326,
          0.61279,
          0.60941,
          0.6133,
          0.60434,
          0.60208,
          0.59753,
          0.60472,
          0.60357,
          0.59772,
          0.59538,
          0.59447,
          0.59117,
          0.59756,
          0.5975,
          0.58977,
          0.58839,
          0.59502,
          0.5954,
          0.59364,
          0.59187,
          0.58868,
          0.58455,
          0.58659,
          0.58867,
          0.58131,
          0.58221,
          0.581,
          0.58435,
          0.5784,
          0.57671,
          0.57936,
          0.57288,
          0.56618,
          0.57579,
          0.5695,
          0.57081,
          0.56938,
          0.57583,
          0.57113,
          0.56437,
          0.56067,
          0.56353,
          0.56823,
          0.56139,
          0.56266,
          0.56051,
          0.56505,
          0.56057,
          0.55145,
          0.56149,
          0.56106,
          0.56292,
          0.55588,
          0.55561,
          0.55532,
          0.55627,
          0.55685,
          0.55444,
          0.55006,
          0.55066,
          0.5535,
          0.5466,
          0.54903,
          0.54136,
          0.54146,
          0.54096,
          0.54611,
          0.54194,
          0.5449,
          0.5351,
          0.53556,
          0.53605,
          0.54267,
          0.54104,
          0.53742,
          0.53176,
          0.54655,
          0.52604,
          0.54,
          0.53899,
          0.53441,
          0.5268,
          0.52778,
          0.52518,
          0.52253,
          0.52643,
          0.52403,
          0.53506,
          0.52092,
          0.52245,
          0.52387,
          0.52029,
          0.52036,
          0.52766,
          0.51715,
          0.51752,
          0.5269,
          0.50948,
          0.51632,
          0.51948,
          0.51237,
          0.51422,
          0.51612,
          0.51166,
          0.51989,
          0.50721,
          0.50832,
          0.51557,
          0.5071,
          0.50962,
          0.51764,
          0.50471,
          0.49306,
          0.50219,
          0.49541,
          0.49784,
          0.50267,
          0.49793,
          0.50192,
          0.50045,
          0.5073,
          0.4994,
          0.49189,
          0.48621,
          0.50407,
          0.48886,
          0.48925,
          0.5034,
          0.49745,
          0.49319,
          0.4942,
          0.48398,
          0.48966,
          0.49656,
          0.49547,
          0.48167,
          0.49927,
          0.48393,
          0.79796,
          0.47704,
          0.48503,
          0.49489,
          0.49363,
          0.48164,
          0.48197,
          0.47391,
          0.47913,
          0.49031,
          0.47796,
          0.48709,
          0.47662,
          0.49234,
          0.48396,
          0.48644,
          0.48102,
          0.48034,
          0.48381,
          0.47781,
          0.48589,
          0.46602,
          0.48598,
          0.47577,
          0.48402,
          0.47653,
          0.47843,
          0.45504,
          0.47442,
          0.46194,
          0.4674,
          0.46918,
          0.47125,
          0.46137,
          0.45865,
          0.47524,
          0.45234,
          0.46878,
          0.45929,
          0.46931,
          0.47032,
          0.47131,
          0.46488,
          0.4611,
          0.46243,
          0.45346,
          0.46476,
          0.46956,
          0.46875,
          0.46145,
          0.45517,
          0.46131,
          0.45339,
          0.46763,
          0.46959,
          0.47159,
          0.46371,
          0.45344,
          0.4407,
          0.45623,
          0.46962,
          0.45307,
          0.45181,
          0.45058,
          0.44757,
          0.43783,
          0.45891,
          0.44505,
          0.44485,
          0.44568,
          0.44583,
          0.44781,
          0.44518,
          0.43691,
          0.43374,
          0.46144,
          0.43674,
          0.4431,
          0.44542,
          0.44684,
          0.45145,
          0.44674,
          0.45965,
          0.44223,
          0.45035,
          0.457,
          0.42904,
          0.44316,
          0.43871,
          0.44633,
          0.44762,
          0.44114,
          0.44719,
          0.44031,
          0.43707,
          0.43512,
          0.4369,
          0.46699,
          0.4545,
          0.44009,
          0.44221,
          0.4522,
          0.41541,
          0.43384,
          0.42998,
          0.43812,
          0.4356,
          0.42341,
          0.44418,
          0.42344,
          0.42471,
          0.42337,
          0.42547,
          0.42817,
          0.42362,
          0.43688,
          0.43293,
          0.41814,
          0.43406,
          0.44264,
          0.4206,
          0.41789,
          0.40734,
          0.41161,
          0.42893,
          0.41494,
          0.42831,
          0.40788,
          0.42491,
          0.42919,
          0.41092,
          0.43486,
          0.45271,
          0.44669,
          0.42749,
          0.40758,
          0.42581,
          0.4245,
          0.41067,
          0.41499,
          0.41434,
          0.42122,
          0.40439,
          0.42595,
          0.4104,
          0.42037,
          0.40147,
          0.41789,
          0.43605,
          0.40788,
          0.45831,
          0.43402,
          0.42512,
          0.41842,
          0.4019,
          0.41045,
          0.42931,
          0.41794,
          0.42563,
          0.41401,
          0.41069,
          0.41005,
          0.41392,
          0.4181,
          0.42634,
          0.42807,
          0.41801,
          0.41726,
          0.40412,
          0.4141,
          0.39609,
          0.37605,
          0.39893,
          0.4023,
          0.43288,
          0.43365,
          0.41628,
          0.40454,
          0.37354,
          0.40684,
          0.40448,
          0.41807,
          0.4176,
          0.40341,
          0.40956,
          0.38727,
          0.37899,
          0.39115,
          0.41426,
          0.38789,
          0.38384,
          0.41075,
          0.42969,
          0.39979,
          0.39838,
          0.39635,
          0.39341,
          0.38708,
          0.41194,
          0.40663,
          0.394,
          0.39599,
          0.36558,
          0.39444,
          0.39728,
          0.39741,
          0.38644,
          0.40771,
          0.39628,
          0.40095,
          0.40932,
          0.3828,
          0.41572,
          0.42537,
          0.36909,
          0.39624,
          0.39954,
          0.39264,
          0.39891,
          0.39198,
          0.35057,
          0.35427,
          0.38638,
          0.38243,
          0.3902,
          0.40339,
          0.42095,
          0.3871,
          0.34055,
          0.44088,
          0.38055,
          0.40076,
          0.3699,
          0.41649,
          0.39493,
          0.39243,
          0.4273,
          0.39737,
          0.4,
          0.36052,
          0.38355,
          0.34554,
          0.37192,
          0.43205,
          0.39201,
          0.35608,
          0.38289,
          0.36771,
          0.36436,
          0.35705,
          0.39178,
          0.36376,
          0.36111,
          0.35127,
          0.4081,
          0.32571,
          0.39342,
          0.38474,
          0.37278,
          0.38523,
          0.36137,
          0.3946,
          0.40102,
          0.37879,
          0.35135,
          0.32163,
          0.44784,
          0.30201,
          0.39623,
          0.42197,
          0.40546,
          0.41889,
          0.39203,
          0.37405,
          0.39286,
          0.41463,
          0.31837,
          0.34608,
          0.39168,
          0.35824,
          0.4186,
          0.44819,
          0.42857,
          0.45,
          0.42857,
          0.42967,
          0.43889,
          0.51899,
          0.36935,
          0.4042,
          0.33668,
          0.4121,
          0.375,
          0.38298,
          0.29539,
          0.38953,
          0.36812,
          0.36755,
          0.41846,
          0.29745,
          0.39935,
          0.28144,
          0.35127,
          0.30678,
          0.3006,
          0.35906,
          0.38796,
          0.30072,
          0.29966,
          0.41762,
          0.39068,
          0.39922,
          0.37638,
          0.38843,
          0.35965,
          0.23387,
          0.28235,
          0.47699,
          0.32143,
          0.38182,
          0.34247,
          0.34804,
          0.32218,
          0.25604,
          0.38356,
          0.44304,
          0.19313,
          0.49261,
          0.27404,
          0.5,
          0.37368,
          0.25,
          0.33803,
          0.22449,
          0.19048,
          0.3253,
          0.46667,
          0.27059,
          0.29412,
          0.43165,
          0.46903,
          0.37143,
          0.34228,
          0.352,
          0.35922,
          0.27027,
          0.39394,
          0.36441,
          0.39394,
          0.10833,
          0.24837,
          0.33929,
          0.42056,
          0.18349,
          0.23478,
          0.51852,
          0.58667,
          0.42,
          0.15315,
          0.33333,
          0.4,
          0.25,
          0.12821,
          0.3,
          0.2987,
          0.35955,
          0.19697,
          0.52941,
          0.45545,
          0.22857,
          0.78947,
          0.16883,
          0.28767,
          0.34568,
          0.5,
          0.13158,
          0.61972,
          0.35714,
          0.32075,
          0.12069,
          0.04444,
          0.31915,
          0.1,
          0.56364,
          0.48333,
          0.19512,
          0.81395,
          0.34615,
          0.06061,
          0.55102,
          0.17647,
          0.14286,
          0.09524,
          0.08889,
          0.66667,
          0.05263,
          0.75676,
          0.6,
          0.24324,
          0.29545,
          0.7619,
          0.02439,
          0.31034,
          0.36667,
          0.4375,
          0.5,
          0.03448,
          0.07143,
          0.7,
          0.33333,
          0.4,
          0.2,
          0.25,
          0.6,
          0.18182,
          0.06977
        ]
      ]
    }
  }
}