{
  "entry": "22613",
  "last_updated": "2018-01-29",
  "number_of_revisions": "5",
  "histories": [
    {
      "x4_code": "(19860731C)",
      "free_txt": []
    },
    {
      "x4_code": "(19991217T)",
      "free_txt": [
        "  Converted by S.M."
      ]
    },
    {
      "x4_code": "(20040306A)",
      "free_txt": [
        "  Initial nucleus corrected"
      ]
    },
    {
      "x4_code": "(20121227A)",
      "free_txt": [
        " SD: BIB update (DETECTOR, ERR-ANALYS,",
        "SAMPLE were added). DATA values were corrected in",
        "Subent 002, second REACTION code and values were added."
      ]
    },
    {
      "x4_code": "(20170823A)",
      "free_txt": [
        " SD: Subent 002 split in two."
      ]
    }
  ],
  "bib_record": {
    "title": "Total cross section of water at room temperature and 200 degrees C",
    "authors": [
      {
        "name": "M.Dritsa"
      },
      {
        "name": "A.Kostikas"
      }
    ],
    "institutes": [
      {
        "x4_code": "(2GRCATH)",
        "free_txt": []
      }
    ],
    "references": [
      {
        "x4_code": "(R,EANDC(OR)-63L,1967)",
        "free_txt": [],
        "publication_year": "1967",
        "pointer": "0"
      }
    ],
    "facilities": [
      {
        "x4_code": "(CHOPF,2GRCATH)",
        "free_txt": [],
        "pointer": "0",
        "facility_type": "(CHOPF)",
        "institute": "(2GRCATH)"
      }
    ]
  },
  "reactions": {
    "002": {
      "0": {
        "x4_code": "(1-H-WTR(N,TOT),,SIG,,TMP)",
        "children": [
          {
            "code": [
              "1-H-WTR",
              [
                "N,TOT"
              ],
              ",,SIG,,TMP"
            ],
            "type": null,
            "target": "1-H-WTR",
            "process": "N,TOT",
            "sf49": ",,SIG,,TMP",
            "sf4": null,
            "sf5": null,
            "sf6": "SIG",
            "sf7": null,
            "sf8": "TMP",
            "sf9": null
          }
        ],
        "type": null,
        "free_text": " - at room temperature"
      }
    },
    "003": {
      "0": {
        "x4_code": "(1-H-WTR(N,TOT),,SIG,,TMP)",
        "children": [
          {
            "code": [
              "1-H-WTR",
              [
                "N,TOT"
              ],
              ",,SIG,,TMP"
            ],
            "type": null,
            "target": "1-H-WTR",
            "process": "N,TOT",
            "sf49": ",,SIG,,TMP",
            "sf4": null,
            "sf5": null,
            "sf6": "SIG",
            "sf7": null,
            "sf8": "TMP",
            "sf9": null
          }
        ],
        "type": null,
        "free_text": " - - at 200 degree C."
      }
    }
  },
  "data_tables": {
    "001": {
      "common": {
        "heads": [
          "ERR-SYS",
          "ERR-2"
        ],
        "units": [
          "PER-CENT",
          "PER-CENT"
        ],
        "data": [
          [
            0.3
          ],
          [
            0.25
          ]
        ]
      }
    },
    "002": {
      "common": {
        "heads": [
          "TEMP"
        ],
        "units": [
          "DEG-C"
        ],
        "data": [
          [
            20.0
          ]
        ]
      },
      "data": {
        "heads": [
          "EN",
          "DATA",
          "ERR-S"
        ],
        "units": [
          "EV",
          "B",
          "B"
        ],
        "data": [
          [
            0.01011,
            0.01019,
            0.01027,
            0.01036,
            0.01044,
            0.01052,
            0.01061,
            0.0107,
            0.01078,
            0.01087,
            0.01096,
            0.01105,
            0.01114,
            0.01124,
            0.01133,
            0.01143,
            0.01152,
            0.01162,
            0.01172,
            0.01182,
            0.01192,
            0.01202,
            0.01213,
            0.01223,
            0.01234,
            0.01245,
            0.01256,
            0.01267,
            0.01278,
            0.01289,
            0.01301,
            0.01313,
            0.01325,
            0.01337,
            0.01349,
            0.01361,
            0.01374,
            0.01387,
            0.01399,
            0.01412,
            0.01426,
            0.01439,
            0.01453,
            0.01467,
            0.01481,
            0.01495,
            0.01509,
            0.01524,
            0.01539,
            0.01554,
            0.01569,
            0.01585,
            0.01601,
            0.01617,
            0.01633,
            0.01649,
            0.01666,
            0.01683,
            0.017,
            0.01718,
            0.01736,
            0.01754,
            0.01772,
            0.01791,
            0.0181,
            0.01829,
            0.01849,
            0.01868,
            0.01889,
            0.01909,
            0.0193,
            0.01951,
            0.01973,
            0.01995,
            0.02017,
            0.0204,
            0.02063,
            0.02086,
            0.0211,
            0.02134,
            0.02159,
            0.02184,
            0.0221,
            0.02236,
            0.02262,
            0.02289,
            0.02316,
            0.02344,
            0.02373,
            0.02402,
            0.02431,
            0.02461,
            0.02492,
            0.02523,
            0.02555,
            0.02587,
            0.0262,
            0.02653,
            0.02688,
            0.02723,
            0.02758,
            0.02794,
            0.02831,
            0.02869,
            0.02908,
            0.02947,
            0.02987,
            0.03028,
            0.0307,
            0.03112,
            0.03156,
            0.032,
            0.03246,
            0.03292,
            0.0334,
            0.03388,
            0.03437,
            0.03488,
            0.0354,
            0.03592,
            0.03647,
            0.03702,
            0.03758,
            0.03816,
            0.03875,
            0.03936,
            0.03998,
            0.04061,
            0.04126,
            0.04193,
            0.04261,
            0.04331,
            0.04402,
            0.04476,
            0.04551,
            0.04628,
            0.04707,
            0.04788,
            0.04872,
            0.04957,
            0.05045,
            0.05135,
            0.05227,
            0.05323,
            0.0542,
            0.05521,
            0.05624,
            0.0573,
            0.05839,
            0.05951,
            0.06067,
            0.06186,
            0.06308,
            0.06434,
            0.06564,
            0.06698,
            0.06836,
            0.06979,
            0.07126,
            0.07277,
            0.07596,
            0.07762,
            0.08113,
            0.08298,
            0.08488,
            0.0868,
            0.0889,
            0.091,
            0.0932,
            0.0954,
            0.0978,
            0.1002,
            0.1028,
            0.1054,
            0.1082,
            0.111,
            0.114,
            0.117,
            0.1203,
            0.1236,
            0.1271,
            0.1307,
            0.1345,
            0.1385,
            0.1426,
            0.1469,
            0.1514,
            0.1562,
            0.1663,
            0.1718,
            0.1755,
            0.1899,
            0.1965,
            0.2035,
            0.2109,
            0.2188,
            0.227,
            0.2357,
            0.245,
            0.2548,
            0.2652,
            0.2762,
            0.288,
            0.3005,
            0.3139,
            0.3281,
            0.3598,
            0.3773,
            0.3962,
            0.4165,
            0.4384,
            0.4621,
            0.4878,
            0.5156,
            0.546,
            0.5791,
            0.6152,
            0.6549,
            0.6986,
            0.7467,
            0.8001,
            0.8593,
            0.9254,
            0.9994,
            1.0827,
            1.1768,
            1.2837,
            1.4059,
            1.5464,
            1.7091,
            1.8988,
            2.122,
            2.3871,
            2.705,
            3.091,
            3.5659,
            4.1593,
            4.9141,
            5.8947,
            7.201,
            8.995,
            11.554,
            15.382
          ],
          [
            140.94,
            140.11,
            142.41,
            137.1,
            135.63,
            142.64,
            138.46,
            140.08,
            140.04,
            139.91,
            140.64,
            137.86,
            139.87,
            139.18,
            139.71,
            139.27,
            136.41,
            134.74,
            135.05,
            135.78,
            134.4,
            132.81,
            136.01,
            134.35,
            134.58,
            133.8,
            133.44,
            133.06,
            132.98,
            132.14,
            133.87,
            130.49,
            133.03,
            131.76,
            130.66,
            130.32,
            131.33,
            130.21,
            132.33,
            129.17,
            128.57,
            128.29,
            128.98,
            130.87,
            130.72,
            129.21,
            129.45,
            128.53,
            128.68,
            126.71,
            127.91,
            129.16,
            127.13,
            127.08,
            127.02,
            125.83,
            125.17,
            125.3,
            123.11,
            124.7,
            124.43,
            123.38,
            122.76,
            123.19,
            122.49,
            122.55,
            119.41,
            120.33,
            119.76,
            120.16,
            120.44,
            119.33,
            120.08,
            118.55,
            118.73,
            117.91,
            117.2,
            117.58,
            117.07,
            116.23,
            115.75,
            114.94,
            114.92,
            114.38,
            114.61,
            116.39,
            112.15,
            112.27,
            111.83,
            111.25,
            111.71,
            109.8,
            109.37,
            109.36,
            109.59,
            108.17,
            107.59,
            107.08,
            107.96,
            105.93,
            106.22,
            105.97,
            104.93,
            104.4,
            104.71,
            102.44,
            102.83,
            101.66,
            101.9,
            100.79,
            100.4,
            99.62,
            99.14,
            99.21,
            98.51,
            97.77,
            97.33,
            97.3,
            96.53,
            95.74,
            95.11,
            94.37,
            93.94,
            93.17,
            92.76,
            92.07,
            91.78,
            90.94,
            90.62,
            90.23,
            89.34,
            89.17,
            88.78,
            87.97,
            87.36,
            86.53,
            85.91,
            85.67,
            84.45,
            84.34,
            83.85,
            83.57,
            82.67,
            82.38,
            81.65,
            81.47,
            81.07,
            80.19,
            80.02,
            79.62,
            79.46,
            78.76,
            78.32,
            77.82,
            77.16,
            76.81,
            76.53,
            76.13,
            75.77,
            75.29,
            74.59,
            74.11,
            73.85,
            73.13,
            72.83,
            72.77,
            72.19,
            71.94,
            71.44,
            70.92,
            70.51,
            70.28,
            69.35,
            69.69,
            69.26,
            68.63,
            68.23,
            67.6,
            67.68,
            67.22,
            66.8,
            66.39,
            66.03,
            65.21,
            64.85,
            64.28,
            63.51,
            62.5,
            62.33,
            61.44,
            60.13,
            60.35,
            59.39,
            59.78,
            58.37,
            58.26,
            58.04,
            56.86,
            56.17,
            56.02,
            55.65,
            55.11,
            54.68,
            53.22,
            53.18,
            53.85,
            51.73,
            50.77,
            50.12,
            49.53,
            49.89,
            48.97,
            49.32,
            49.12,
            48.93,
            48.65,
            48.04,
            48.22,
            47.81,
            47.4,
            47.17,
            41.09,
            47.06,
            46.66,
            46.56,
            46.31,
            46.2,
            45.86,
            46.17,
            45.79,
            45.69,
            45.53,
            44.79,
            44.89,
            44.86,
            45.25,
            44.01,
            43.69,
            43.72,
            43.57,
            43.65,
            43.04,
            43.14
          ],
          [
            2.06,
            1.98,
            1.99,
            1.83,
            1.77,
            1.9,
            1.78,
            1.79,
            1.76,
            1.72,
            1.71,
            1.63,
            1.65,
            1.61,
            1.59,
            1.56,
            1.49,
            1.44,
            1.42,
            1.42,
            1.37,
            1.33,
            1.36,
            1.32,
            1.3,
            1.27,
            1.25,
            1.23,
            1.21,
            1.2,
            1.2,
            1.15,
            1.16,
            1.12,
            1.09,
            1.07,
            1.08,
            1.07,
            1.08,
            1.03,
            1.0,
            0.98,
            0.97,
            0.97,
            0.96,
            0.94,
            0.93,
            0.9,
            0.89,
            0.87,
            0.87,
            0.86,
            0.84,
            0.83,
            0.81,
            0.79,
            0.78,
            0.77,
            0.75,
            0.75,
            0.74,
            0.72,
            0.71,
            0.71,
            0.69,
            0.69,
            0.66,
            0.66,
            0.65,
            0.64,
            0.63,
            0.62,
            0.62,
            0.61,
            0.61,
            0.59,
            0.58,
            0.58,
            0.57,
            0.56,
            0.55,
            0.54,
            0.54,
            0.53,
            0.53,
            0.53,
            0.51,
            0.5,
            0.5,
            0.49,
            0.49,
            0.48,
            0.47,
            0.47,
            0.47,
            0.46,
            0.46,
            0.45,
            0.45,
            0.44,
            0.44,
            0.44,
            0.43,
            0.43,
            0.43,
            0.42,
            0.42,
            0.41,
            0.41,
            0.41,
            0.4,
            0.4,
            0.4,
            0.39,
            0.39,
            0.39,
            0.39,
            0.38,
            0.38,
            0.38,
            0.38,
            0.37,
            0.37,
            0.37,
            0.37,
            0.36,
            0.36,
            0.36,
            0.36,
            0.36,
            0.36,
            0.36,
            0.35,
            0.35,
            0.35,
            0.35,
            0.35,
            0.35,
            0.34,
            0.34,
            0.34,
            0.34,
            0.34,
            0.34,
            0.34,
            0.34,
            0.34,
            0.34,
            0.34,
            0.34,
            0.33,
            0.33,
            0.33,
            0.33,
            0.33,
            0.33,
            0.33,
            0.33,
            0.33,
            0.33,
            0.33,
            0.33,
            0.33,
            0.33,
            0.33,
            0.33,
            0.33,
            0.33,
            0.33,
            0.34,
            0.34,
            0.34,
            0.34,
            0.34,
            0.34,
            0.34,
            0.34,
            0.34,
            0.35,
            0.35,
            0.35,
            0.35,
            0.36,
            0.36,
            0.36,
            0.36,
            0.37,
            0.37,
            0.38,
            0.38,
            0.39,
            0.39,
            0.4,
            0.4,
            0.41,
            0.41,
            0.41,
            0.41,
            0.42,
            0.42,
            0.42,
            0.42,
            0.42,
            0.42,
            0.42,
            0.42,
            0.41,
            0.41,
            0.41,
            0.41,
            0.41,
            0.41,
            0.41,
            0.41,
            0.41,
            0.41,
            0.41,
            0.41,
            0.41,
            0.41,
            0.41,
            0.41,
            0.41,
            0.41,
            0.41,
            0.41,
            0.41,
            0.41,
            0.41,
            0.4,
            0.41,
            0.4,
            0.4,
            0.4,
            0.4,
            0.4,
            0.4,
            0.4,
            0.4,
            0.4,
            0.4,
            0.4,
            0.4
          ]
        ]
      }
    },
    "003": {
      "common": {
        "heads": [
          "TEMP"
        ],
        "units": [
          "DEG-C"
        ],
        "data": [
          [
            200.0
          ]
        ]
      },
      "data": {
        "heads": [
          "EN",
          "DATA"
        ],
        "units": [
          "EV",
          "B"
        ],
        "data": [
          [
            0.01011,
            0.01019,
            0.01027,
            0.01036,
            0.01044,
            0.01052,
            0.01061,
            0.0107,
            0.01078,
            0.01087,
            0.01096,
            0.01105,
            0.01114,
            0.01124,
            0.01133,
            0.01143,
            0.01152,
            0.01162,
            0.01172,
            0.01182,
            0.01192,
            0.01202,
            0.01213,
            0.01223,
            0.01234,
            0.01245,
            0.01256,
            0.01267,
            0.01278,
            0.01289,
            0.01301,
            0.01313,
            0.01325,
            0.01337,
            0.01349,
            0.01361,
            0.01374,
            0.01387,
            0.01399,
            0.01412,
            0.01426,
            0.01439,
            0.01453,
            0.01467,
            0.01481,
            0.01495,
            0.01509,
            0.01524,
            0.01539,
            0.01554,
            0.01569,
            0.01585,
            0.01601,
            0.01617,
            0.01633,
            0.01649,
            0.01666,
            0.01683,
            0.017,
            0.01718,
            0.01736,
            0.01754,
            0.01772,
            0.01791,
            0.0181,
            0.01829,
            0.01849,
            0.01868,
            0.01889,
            0.01909,
            0.0193,
            0.01951,
            0.01973,
            0.01995,
            0.02017,
            0.0204,
            0.02063,
            0.02086,
            0.0211,
            0.02134,
            0.02159,
            0.02184,
            0.0221,
            0.02236,
            0.02262,
            0.02289,
            0.02316,
            0.02344,
            0.02373,
            0.02402,
            0.02431,
            0.02461,
            0.02492,
            0.02523,
            0.02555,
            0.02587,
            0.0262,
            0.02653,
            0.02688,
            0.02723,
            0.02758,
            0.02794,
            0.02831,
            0.02869,
            0.02908,
            0.02947,
            0.02987,
            0.03028,
            0.0307,
            0.03112,
            0.03156,
            0.032,
            0.03246,
            0.03292,
            0.0334,
            0.03388,
            0.03437,
            0.03488,
            0.0354,
            0.03592,
            0.03647,
            0.03702,
            0.03758,
            0.03816,
            0.03875,
            0.03936,
            0.03998,
            0.04061,
            0.04126,
            0.04193,
            0.04261,
            0.04331,
            0.04402,
            0.04476,
            0.04551,
            0.04628,
            0.04707,
            0.04788,
            0.04872,
            0.04957,
            0.05045,
            0.05135,
            0.05227,
            0.05323,
            0.0542,
            0.05521,
            0.05624,
            0.0573,
            0.05839,
            0.05951,
            0.06067,
            0.06186,
            0.06308,
            0.06434,
            0.06564,
            0.06698,
            0.06836,
            0.06979,
            0.07126,
            0.07277,
            0.07596,
            0.07762,
            0.08113,
            0.08298,
            0.08488,
            0.0868,
            0.0889,
            0.091,
            0.0932,
            0.0954,
            0.0978,
            0.1002,
            0.1028,
            0.1054,
            0.1082,
            0.111,
            0.114,
            0.117,
            0.1203,
            0.1236,
            0.1271,
            0.1307,
            0.1345,
            0.1385,
            0.1426,
            0.1469,
            0.1514,
            0.1562,
            0.1663,
            0.1718,
            0.1755,
            0.1899,
            0.1965,
            0.2035,
            0.2109,
            0.2188,
            0.227,
            0.2357,
            0.245,
            0.2548,
            0.2652,
            0.2762,
            0.288,
            0.3005,
            0.3139,
            0.3281,
            0.3598,
            0.3773,
            0.3962,
            0.4165,
            0.4384,
            0.4621,
            0.4878,
            0.5156,
            0.546,
            0.5791,
            0.6152,
            0.6549,
            0.6986,
            0.7467,
            0.8001,
            0.8593,
            0.9254,
            0.9994,
            1.0827,
            1.1768,
            1.2837,
            1.4059,
            1.5464,
            1.7091,
            1.8988,
            2.122,
            2.3871,
            2.705,
            3.091,
            3.5659,
            4.1593,
            4.9141,
            5.8947,
            7.201,
            8.995,
            11.554,
            15.382
          ],
          [
            143.86,
            135.02,
            142.46,
            144.52,
            148.3,
            146.66,
            140.19,
            141.84,
            143.88,
            145.82,
            144.39,
            138.76,
            145.07,
            143.3,
            139.52,
            144.11,
            136.61,
            142.23,
            139.38,
            140.58,
            143.17,
            139.41,
            140.9,
            137.51,
            140.02,
            139.56,
            137.95,
            137.32,
            139.68,
            136.32,
            134.61,
            137.75,
            136.51,
            139.4,
            132.68,
            137.43,
            133.75,
            134.35,
            134.54,
            133.55,
            132.39,
            132.34,
            132.64,
            133.92,
            131.82,
            130.58,
            132.5,
            133.73,
            131.02,
            130.07,
            128.93,
            130.71,
            128.99,
            127.95,
            127.02,
            126.63,
            128.46,
            127.21,
            126.43,
            117.93,
            126.16,
            123.33,
            124.87,
            121.47,
            122.84,
            122.81,
            122.68,
            121.49,
            119.7,
            120.79,
            119.2,
            119.17,
            119.74,
            118.97,
            118.95,
            117.96,
            117.96,
            116.75,
            116.07,
            116.03,
            116.42,
            112.01,
            114.44,
            115.21,
            114.71,
            112.89,
            112.95,
            112.65,
            114.24,
            110.78,
            110.52,
            109.38,
            109.21,
            108.4,
            107.58,
            107.61,
            106.95,
            106.74,
            106.45,
            106.14,
            106.0,
            104.83,
            104.39,
            105.34,
            102.77,
            102.93,
            101.34,
            101.31,
            100.64,
            100.27,
            99.86,
            99.97,
            98.56,
            97.66,
            97.72,
            96.57,
            97.43,
            96.16,
            95.05,
            95.08,
            94.63,
            94.05,
            93.88,
            94.76,
            92.55,
            94.32,
            91.86,
            91.12,
            90.3,
            91.74,
            89.82,
            89.41,
            88.63,
            88.45,
            87.46,
            86.55,
            86.3,
            85.97,
            85.74,
            84.9,
            85.36,
            84.27,
            83.45,
            83.3,
            82.99,
            82.64,
            81.83,
            81.16,
            80.89,
            80.79,
            80.18,
            80.01,
            79.3,
            78.92,
            78.36,
            76.47,
            77.56,
            77.32,
            76.72,
            76.74,
            75.58,
            75.23,
            74.35,
            74.21,
            73.68,
            73.4,
            73.14,
            72.62,
            72.17,
            71.76,
            71.23,
            71.07,
            70.64,
            70.54,
            70.05,
            69.93,
            69.06,
            68.42,
            68.09,
            67.37,
            67.32,
            66.47,
            66.55,
            66.13,
            65.22,
            64.93,
            64.83,
            63.82,
            63.17,
            62.74,
            62.55,
            60.98,
            60.85,
            59.49,
            59.74,
            59.43,
            55.52,
            57.68,
            57.16,
            57.35,
            56.06,
            55.79,
            55.36,
            54.6,
            55.75,
            52.88,
            52.0,
            52.1,
            51.61,
            50.18,
            49.98,
            50.01,
            50.09,
            49.12,
            50.06,
            49.07,
            48.41,
            48.8,
            48.34,
            48.24,
            47.8,
            47.42,
            48.81,
            46.62,
            46.52,
            47.03,
            46.67,
            45.99,
            46.64,
            45.21,
            43.03,
            45.56,
            44.95,
            44.62,
            45.26,
            44.53,
            44.31,
            43.76,
            45.17,
            43.9,
            42.8,
            42.95,
            43.13
          ]
        ]
      }
    }
  },
  "experimental_conditions": {
    "001": {
      "0": {
        "add-res": [
          {
            "x4_code": null,
            "free_txt": [
              "For comparison with previous results the cross section",
              "per hydrogen atom in water, at room temperature, has",
              "been calculated."
            ]
          }
        ],
        "correction": [
          {
            "x4_code": null,
            "free_txt": [
              "Corrected on dead time"
            ]
          }
        ],
        "detector": [
          {
            "x4_code": "(BF3)",
            "free_txt": [
              " A bank of four BF3 counters was used for the",
              "detection of neutrons. Another set of four counters,",
              "in two pairs, was set up, above and below the main",
              "beam counters, in order to monitor the background.",
              " * The MAN neutron spectrometer is installed at another",
              "horizontal neutron beam. The monochromator was a Zn",
              "crystal at a distance of 4.11 meters from the reactor",
              "core."
            ]
          }
        ],
        "err-analys": [
          {
            "x4_code": null,
            "free_txt": [
              "* The error due to the geometrical effect is in the",
              "   order of a millibarn and is therefore negligible."
            ]
          },
          {
            "x4_code": "(ERR-SYS)",
            "free_txt": [
              " The total error from sources other than the",
              "statistical is about 0.3%. Namely:"
            ]
          },
          {
            "x4_code": "(ERR-1,,0.2)",
            "free_txt": [
              " Error due to water density error caused",
              "  by the temperature variation around 200 deg-C (<0.2%)"
            ]
          },
          {
            "x4_code": "(ERR-2)",
            "free_txt": [
              "      Error due to uncertainty in the sample",
              "        thickness (0.25%)"
            ]
          }
        ],
        "facility": [
          {
            "x4_code": "(CHOPF,2GRCATH)",
            "free_txt": []
          }
        ],
        "sample": [
          {
            "x4_code": null,
            "free_txt": [
              "The sample holder consists of two aluminum plates, one",
              "of which contains a slot which serves as the sample",
              "space. The plates are pressed together by means of two",
              "iron plates and bolts. Four flat heating elements are",
              "placed in slots between the iron and aluminum plates.",
              "A tight seal of the sample space is obtained by means",
              "of a lead ring pressed between the aluminum plates.",
              "Two wells are provided in the body of the aluminum",
              "plates for measurement and control of temperature.",
              "An identical sample holder was used as a dummy in the",
              "sample out position in order to compensate for the",
              "absorption of aluminum of the actual sample holder.",
              "The thickness of the water sample, was 7.3 mm., with an",
              "error of about 0.02 mm."
            ]
          }
        ],
        "status": [
          {
            "x4_code": "(TABLE)",
            "free_txt": [
              "  Data from Appendix A of EANDC(OR)-63L"
            ]
          }
        ]
      }
    },
    "002": {
      "0": {
        "err-analys": [
          {
            "x4_code": "(ERR-S)",
            "free_txt": [
              " The errors given in the tables are the",
              " statistical standard deviations. They were between",
              " about 0.4%, in the thermal region and 1% at energies",
              " higher or lower than thermal"
            ]
          }
        ]
      }
    },
    "003": {
      "0": {
        "err-analys": [
          {
            "x4_code": "(ERR-S,0.4,1.)",
            "free_txt": [
              " The errors given in the tables are the",
              " statistical standard deviations. They were between",
              " about 0.4%, in the thermal region and 1% at energies",
              " higher or lower than thermal"
            ]
          }
        ]
      }
    }
  }
}