{
  "bib": {
    "title": " The Total Cross Section Of Li-6 From 70 Ev To 7 Mev",
    "authors": [
      {
        "name": "C.A.Uttley"
      },
      {
        "name": " K.M.Diment"
      }
    ],
    "institutes": [
      {
        "x4_code": "(2UK HAR)",
        "free_txt": []
      }
    ],
    "references": {
      "0": [
        {
          "x4_code": "(W,UTTLEY,197401)",
          "free_txt": [
            " Note and numeric values."
          ],
          "publication_year": "1974"
        },
        {
          "x4_code": "(C,70ANL,,80,1970)",
          "free_txt": [
            " Exp. Mentioned briefly on p. 102."
          ],
          "publication_year": "1970"
        },
        {
          "x4_code": "(P,AERE-PR/NP-14,20,1968)",
          "free_txt": [
            " Progress report, s-wave param"
          ],
          "publication_year": "1968"
        },
        {
          "x4_code": "(P,AERE-PR/NP-15,12,1969)",
          "free_txt": [
            " Progress report, data on fig."
          ],
          "publication_year": "1969"
        },
        {
          "x4_code": "(P,AERE-PR/NP-13,4,1968)",
          "free_txt": [
            "  Progress report, data on fig."
          ],
          "publication_year": "1968"
        },
        {
          "x4_code": "(R,AERE-PR/NP-16,3,1969)",
          "free_txt": [
            " Progress report, data on fig."
          ],
          "publication_year": "1969"
        }
      ]
    },
    "facility": {
      "0": [
        {
          "x4_code": "(LINAC,2UK HAR)",
          "free_txt": [
            " Harwell 45-MeV electron linear",
            " accelerator, with booster target."
          ],
          "facility_type": "(LINAC)",
          "insitute": "(2UK HAR)"
        }
      ]
    },
    "history": [
      {
        "x4_code": "(19740222C)",
        "free_txt": []
      },
      {
        "x4_code": "(19801125A)",
        "free_txt": [
          " monitor corrected."
        ]
      },
      {
        "x4_code": "(20140121A)",
        "free_txt": [
          " SD: Updated to new date formats,lower case.",
          " Corrections according last EXFOR rules and Dict.",
          " Ref. AERE-PR/NP-16,3 ->  AERE-PR/NP-13,4."
        ]
      },
      {
        "x4_code": "(20220215U)",
        "free_txt": [
          " SD: Ref. AERE-PR/NP-16,3 added."
        ]
      }
    ]
  },
  "20366-001": {
    "extra_information": {
      "detector": {
        "0": [
          {
            "x4_code": "(NAICR)",
            "free_txt": [
              " Boron-10 plugs and NaI counter.",
              " Detected 478-keV gamma ray from B-10(n,alpha1 gamma)."
            ]
          }
        ]
      },
      "err-analys": {
        "0": [
          {
            "x4_code": "(ERR-S)",
            "free_txt": [
              " Statistical error only, no further information."
            ]
          }
        ]
      },
      "facility": {
        "0": [
          {
            "x4_code": "(LINAC,2UK HAR)",
            "free_txt": [
              " Harwell 45-MeV electron linear",
              " accelerator, with booster target."
            ]
          }
        ]
      },
      "method": {
        "0": [
          {
            "x4_code": "(TOF)",
            "free_txt": [
              "  Time of flight, flight paths = 120 m and",
              " 300 m covering neutron energy ranges 70 eV to 100 keV",
              " and 0.1 MeV to 7 MeV, respectively.  Time channel",
              " width is 0.125 micro-sec."
            ]
          }
        ]
      },
      "monitor": {
        "0": [
          {
            "x4_code": "(3-LI-6(N,T)2-HE-4,,SIG)",
            "free_txt": []
          }
        ]
      },
      "sample": {
        "0": [
          {
            "x4_code": "(3-LI-6,ENR=0.952)",
            "free_txt": [
              " Data from 2 samples combined",
              " n = 0.08576 atoms/b and 0.05119 atoms/barn.",
              " Enriched to 95.2% in Li-6."
            ]
          }
        ]
      },
      "status": {
        "0": [
          {
            "x4_code": "(TABLE)",
            "free_txt": [
              " Data and short comment from Uttley, 23/01/1974"
            ]
          }
        ]
      }
    }
  },
  "20366-002": {
    "reaction": {
      "0": {
        "x4_code": "(3-LI-6(N,TOT),,SIG)",
        "0": {
          "code": [
            "3-LI-6",
            [
              "N,TOT"
            ],
            ",,SIG"
          ],
          "type": null,
          "target": "3-LI-6",
          "process": "N,TOT",
          "sf49": ",,SIG",
          "sf4": null,
          "sf5": null,
          "sf6": "SIG",
          "sf7": null,
          "sf8": null,
          "sf9": null
        },
        "type": null,
        "free_text": " Total cross section."
      }
    },
    "extra_information": {},
    "common": null,
    "data": {
      "heads": [
        "EN",
        "DATA",
        "ERR-S"
      ],
      "units": [
        "MEV",
        "B",
        "B"
      ],
      "data": [
        [
          7.1901e-05,
          7.2395e-05,
          7.39e-05,
          7.4908e-05,
          7.5917e-05,
          7.6927e-05,
          7.7938e-05,
          7.8949e-05,
          7.9959e-05,
          8.0967e-05,
          8.1973e-05,
          8.2977e-05,
          8.3987e-05,
          8.5005e-05,
          8.6019e-05,
          8.7028e-05,
          8.8042e-05,
          8.9062e-05,
          9.0076e-05,
          9.1081e-05,
          9.2092e-05,
          9.3105e-05,
          9.4123e-05,
          9.5144e-05,
          9.6155e-05,
          9.7167e-05,
          9.8182e-05,
          9.9199e-05,
          0.00010022,
          0.00010124,
          0.00010226,
          0.00010328,
          0.0001043,
          0.00010532,
          0.00010634,
          0.00010735,
          0.00010837,
          0.00010939,
          0.0001104,
          0.00011141,
          0.00011243,
          0.00011345,
          0.00011447,
          0.00011548,
          0.00011649,
          0.00011751,
          0.00011852,
          0.00011953,
          0.00012056,
          0.00012157,
          0.00012258,
          0.00012361,
          0.00012462,
          0.00012563,
          0.00012665,
          0.00012768,
          0.00012871,
          0.00012972,
          0.00013075,
          0.00013177,
          0.00013278,
          0.0001338,
          0.00013483,
          0.00013585,
          0.00013686,
          0.00013788,
          0.00013891,
          0.00013993,
          0.00014094,
          0.00014195,
          0.00014298,
          0.00014402,
          0.00014505,
          0.00014606,
          0.00014708,
          0.00014812,
          0.00014916,
          0.00015019,
          0.0001512,
          0.00015223,
          0.00015326,
          0.0001543,
          0.00015533,
          0.00015634,
          0.00015736,
          0.00015839,
          0.00015942,
          0.00016047,
          0.0001615,
          0.00016251,
          0.00016353,
          0.00016456,
          0.0001656,
          0.00016665,
          0.00016768,
          0.00016868,
          0.0001697,
          0.00017072,
          0.00017175,
          0.00017279,
          0.00017385,
          0.00017491,
          0.00017594,
          0.00017696,
          0.00017798,
          0.00017901,
          0.00018005,
          0.0001811,
          0.00018216,
          0.00018319,
          0.00018419,
          0.0001852,
          0.00018622,
          0.00018725,
          0.00018829,
          0.00018934,
          0.00019039,
          0.00019146,
          0.00019249,
          0.0001935,
          0.00019451,
          0.00019553,
          0.00019656,
          0.00019759,
          0.00019864,
          0.00019969,
          0.00020075,
          0.00020182,
          0.0002029,
          0.00020394,
          0.00020495,
          0.00020597,
          0.000207,
          0.00020803,
          0.00020907,
          0.00021012,
          0.00021118,
          0.00021224,
          0.00021332,
          0.0002144,
          0.00021544,
          0.00021645,
          0.00021746,
          0.00021848,
          0.00021951,
          0.00022054,
          0.00022158,
          0.00022263,
          0.00022369,
          0.00022475,
          0.00022582,
          0.0002269,
          0.00022799,
          0.00022908,
          0.00023014,
          0.00023114,
          0.00023216,
          0.00023318,
          0.00023421,
          0.00023525,
          0.00023629,
          0.00023734,
          0.0002384,
          0.00023946,
          0.00024053,
          0.00024161,
          0.0002427,
          0.00024379,
          0.00024489,
          0.00024594,
          0.00024695,
          0.00024795,
          0.00024897,
          0.00024999,
          0.00025102,
          0.00025205,
          0.0002531,
          0.00025414,
          0.0002552,
          0.00025626,
          0.00025732,
          0.0002584,
          0.00025948,
          0.00026056,
          0.00026166,
          0.00026276,
          0.00026387,
          0.00026498,
          0.00026604,
          0.00026704,
          0.00026805,
          0.00026907,
          0.00027009,
          0.00027111,
          0.00027215,
          0.00027318,
          0.00027423,
          0.00027528,
          0.00027633,
          0.00027739,
          0.00027846,
          0.00027954,
          0.00028062,
          0.0002817,
          0.0002828,
          0.00028389,
          0.000285,
          0.00028611,
          0.00028723,
          0.00028836,
          0.00028949,
          0.00029063,
          0.0002917,
          0.00029271,
          0.00029372,
          0.00029474,
          0.00029576,
          0.00029679,
          0.00029782,
          0.00029886,
          0.00029991,
          0.00030096,
          0.00030201,
          0.00030307,
          0.00030414,
          0.00030521,
          0.00030629,
          0.00030738,
          0.00030847,
          0.00030956,
          0.00031066,
          0.00031177,
          0.00031288,
          0.000314,
          0.00031513,
          0.00031626,
          0.0003174,
          0.00031854,
          0.00031969,
          0.00032084,
          0.00032201,
          0.00032309,
          0.0003241,
          0.00032511,
          0.00032612,
          0.00032714,
          0.00032817,
          0.0003292,
          0.00033023,
          0.00033127,
          0.00033232,
          0.00033337,
          0.00033442,
          0.00033548,
          0.00033655,
          0.00033762,
          0.00033869,
          0.00033977,
          0.00034086,
          0.00034195,
          0.00034304,
          0.00034414,
          0.00034525,
          0.00034636,
          0.00034748,
          0.0003486,
          0.00034973,
          0.00035086,
          0.000352,
          0.00035315,
          0.0003543,
          0.00035545,
          0.00035661,
          0.00035778,
          0.00035895,
          0.00036013,
          0.00036131,
          0.0003625,
          0.0003637,
          0.0003648,
          0.00036581,
          0.00036682,
          0.00036783,
          0.00036885,
          0.00036987,
          0.0003709,
          0.00037193,
          0.00037297,
          0.00037401,
          0.00037505,
          0.0003761,
          0.00037715,
          0.00037821,
          0.00037927,
          0.00038034,
          0.00038141,
          0.00038248,
          0.00038356,
          0.00038465,
          0.00038574,
          0.00038683,
          0.00038793,
          0.00038903,
          0.00039014,
          0.00039125,
          0.00039237,
          0.00039349,
          0.00039462,
          0.00039575,
          0.00039688,
          0.00039803,
          0.00039917,
          0.00040032,
          0.00040148,
          0.00040264,
          0.00040381,
          0.00040498,
          0.00040616,
          0.00040734,
          0.00040852,
          0.00040972,
          0.00041091,
          0.00041212,
          0.00041332,
          0.00041454,
          0.00041575,
          0.00041698,
          0.00041821,
          0.00041944,
          0.00042068,
          0.00042193,
          0.00042305,
          0.00042406,
          0.00042507,
          0.00042608,
          0.00042709,
          0.00042811,
          0.00042914,
          0.00043016,
          0.00043119,
          0.00043222,
          0.00043326,
          0.0004343,
          0.00043535,
          0.0004364,
          0.00043745,
          0.00043851,
          0.00043957,
          0.00044063,
          0.0004417,
          0.00044277,
          0.00044384,
          0.00044492,
          0.00044601,
          0.0004471,
          0.00044819,
          0.00044928,
          0.00045038,
          0.00045148,
          0.00045259,
          0.0004537,
          0.00045482,
          0.00045594,
          0.00045706,
          0.00045819,
          0.00045932,
          0.00046046,
          0.0004616,
          0.00046275,
          0.0004639,
          0.00046505,
          0.00046621,
          0.00046737,
          0.00046854,
          0.00046971,
          0.00047088,
          0.00047206,
          0.00047325,
          0.00047443,
          0.00047563,
          0.00047683,
          0.00047803,
          0.00047923,
          0.00048045,
          0.00048166,
          0.00048288,
          0.00048411,
          0.00048534,
          0.00048657,
          0.00048781,
          0.00048905,
          0.0004903,
          0.00049156,
          0.00049281,
          0.00049408,
          0.00049535,
          0.00049662,
          0.0004979,
          0.00049918,
          0.00050047,
          0.00050176,
          0.00050306,
          0.00050436,
          0.00050567,
          0.00050698,
          0.0005083,
          0.00050962,
          0.00051095,
          0.00051212,
          0.00051312,
          0.00051413,
          0.00051513,
          0.00051615,
          0.00051716,
          0.00051818,
          0.0005192,
          0.00052023,
          0.00052125,
          0.00052228,
          0.00052332,
          0.00052435,
          0.00052539,
          0.00052643,
          0.00052748,
          0.00052853,
          0.00052958,
          0.00053063,
          0.00053169,
          0.00053275,
          0.00053382,
          0.00053489,
          0.00053596,
          0.00053703,
          0.00053811,
          0.00053919,
          0.00054027,
          0.00054136,
          0.00054245,
          0.00054354,
          0.00054464,
          0.00054574,
          0.00054684,
          0.00054795,
          0.00054906,
          0.00055017,
          0.00055129,
          0.00055241,
          0.00055354,
          0.00055466,
          0.00055579,
          0.00055693,
          0.00055806,
          0.00055921,
          0.00056035,
          0.0005615,
          0.00056265,
          0.00056381,
          0.00056496,
          0.00056613,
          0.00056729,
          0.00056846,
          0.00056964,
          0.00057081,
          0.00057199,
          0.00057318,
          0.00057437,
          0.00057556,
          0.00057675,
          0.00057795,
          0.00057915,
          0.00058036,
          0.00058157,
          0.00058278,
          0.000584,
          0.00058522,
          0.00058645,
          0.00058768,
          0.00058891,
          0.00059015,
          0.00059139,
          0.00059263,
          0.00059388,
          0.00059514,
          0.00059639,
          0.00059765,
          0.00059892,
          0.00060019,
          0.00060146,
          0.00060274,
          0.00060402,
          0.0006053,
          0.00060659,
          0.00060789,
          0.00060918,
          0.00061049,
          0.00061179,
          0.0006131,
          0.00061442,
          0.00061573,
          0.00061706,
          0.00061838,
          0.00061971,
          0.00062105,
          0.00062239,
          0.00062373,
          0.00062508,
          0.00062644,
          0.00062779,
          0.00062915,
          0.00063052,
          0.00063189,
          0.00063327,
          0.00063465,
          0.00063603,
          0.00063742,
          0.00063881,
          0.00064021,
          0.00064161,
          0.00064302,
          0.00064443,
          0.00064585,
          0.00064727,
          0.00064869,
          0.00065012,
          0.00065156,
          0.000653,
          0.00065444,
          0.00065589,
          0.00065735,
          0.00065881,
          0.00066027,
          0.00066174,
          0.00066321,
          0.00066469,
          0.00066617,
          0.00066766,
          0.00066916,
          0.0006704,
          0.00067141,
          0.00067241,
          0.00067342,
          0.00067442,
          0.00067543,
          0.00067645,
          0.00067746,
          0.00067848,
          0.0006795,
          0.00068052,
          0.00068154,
          0.00068257,
          0.0006836,
          0.00068463,
          0.00068566,
          0.0006867,
          0.00068774,
          0.00068878,
          0.00068982,
          0.00069086,
          0.00069191,
          0.00069296,
          0.00069401,
          0.00069507,
          0.00069612,
          0.00069718,
          0.00069825,
          0.00069931,
          0.00070038,
          0.00070145,
          0.00070252,
          0.00070359,
          0.00070467,
          0.00070575,
          0.00070683,
          0.00070791,
          0.000709,
          0.00071009,
          0.00071118,
          0.00071227,
          0.00071337,
          0.00071447,
          0.00071557,
          0.00071668,
          0.00071778,
          0.00071889,
          0.00072,
          0.00072112,
          0.00072224,
          0.00072336,
          0.00072448,
          0.0007256,
          0.00072673,
          0.00072786,
          0.00072899,
          0.00073013,
          0.00073127,
          0.00073241,
          0.00073355,
          0.0007347,
          0.00073585,
          0.000737,
          0.00073815,
          0.00073931,
          0.00074047,
          0.00074163,
          0.0007428,
          0.00074396,
          0.00074513,
          0.00074631,
          0.00074748,
          0.00074866,
          0.00074984,
          0.00075103,
          0.00075222,
          0.00075341,
          0.0007546,
          0.00075579,
          0.00075699,
          0.0007582,
          0.0007594,
          0.00076061,
          0.00076182,
          0.00076303,
          0.00076425,
          0.00076546,
          0.00076669,
          0.00076791,
          0.00076914,
          0.00077037,
          0.0007716,
          0.00077284,
          0.00077408,
          0.00077532,
          0.00077657,
          0.00077781,
          0.00077907,
          0.00078032,
          0.00078158,
          0.00078284,
          0.0007841,
          0.00078537,
          0.00078664,
          0.00078791,
          0.00078919,
          0.00079047,
          0.00079175,
          0.00079303,
          0.00079432,
          0.00079561,
          0.00079691,
          0.00079821,
          0.00079951,
          0.00080081,
          0.00080212,
          0.00080343,
          0.00080474,
          0.00080606,
          0.00080738,
          0.0008087,
          0.00081003,
          0.00081136,
          0.00081269,
          0.00081403,
          0.00081537,
          0.00081671,
          0.00081806,
          0.00081941,
          0.00082076,
          0.00082212,
          0.00082348,
          0.00082484,
          0.00082621,
          0.00082758,
          0.00082895,
          0.00083033,
          0.00083171,
          0.00083309,
          0.00083448,
          0.00083587,
          0.00083727,
          0.00083866,
          0.00084006,
          0.00084147,
          0.00084288,
          0.00084429,
          0.0008457,
          0.00084712,
          0.00084855,
          0.00084997,
          0.0008514,
          0.00085284,
          0.00085427,
          0.00085571,
          0.00085716,
          0.0008586,
          0.00086005,
          0.00086151,
          0.00086297,
          0.00086443,
          0.0008659,
          0.00086737,
          0.00086884,
          0.00087032,
          0.0008718,
          0.00087329,
          0.00087477,
          0.00087627,
          0.00087776,
          0.00087926,
          0.00088077,
          0.00088228,
          0.00088379,
          0.0008853,
          0.00088682,
          0.00088835,
          0.00088988,
          0.00089141,
          0.00089294,
          0.00089448,
          0.00089602,
          0.00089757,
          0.00089912,
          0.00090068,
          0.00090224,
          0.0009038,
          0.00090537,
          0.00090694,
          0.00090852,
          0.0009101,
          0.00091168,
          0.00091327,
          0.00091486,
          0.00091646,
          0.00091806,
          0.00091966,
          0.00092127,
          0.00092289,
          0.0009245,
          0.00092612,
          0.00092775,
          0.00092938,
          0.00093102,
          0.00093266,
          0.0009343,
          0.00093595,
          0.0009376,
          0.00093925,
          0.00094092,
          0.00094258,
          0.00094425,
          0.00094593,
          0.0009476,
          0.00094929,
          0.00095097,
          0.00095267,
          0.00095436,
          0.00095606,
          0.00095777,
          0.00095948,
          0.0009612,
          0.00096291,
          0.00096464,
          0.00096637,
          0.0009681,
          0.00096984,
          0.00097158,
          0.00097333,
          0.00097508,
          0.00097684,
          0.0009786,
          0.00098036,
          0.00098213,
          0.00098391,
          0.00098569,
          0.00098748,
          0.00098927,
          0.00099106,
          0.00099286,
          0.00099467,
          0.00099648,
          0.00099829,
          0.0010001,
          0.0010019,
          0.0010038,
          0.0010056,
          0.0010074,
          0.0010093,
          0.0010111,
          0.001013,
          0.0010149,
          0.0010167,
          0.0010186,
          0.0010205,
          0.0010223,
          0.0010242,
          0.0010261,
          0.001028,
          0.0010299,
          0.0010318,
          0.0010337,
          0.0010357,
          0.0010376,
          0.0010395,
          0.0010414,
          0.0010434,
          0.0010453,
          0.0010473,
          0.0010492,
          0.0010512,
          0.0010532,
          0.0010551,
          0.0010571,
          0.0010591,
          0.0010611,
          0.0010631,
          0.0010646,
          0.0010656,
          0.0010666,
          0.0010676,
          0.0010686,
          0.0010696,
          0.0010706,
          0.0010716,
          0.0010726,
          0.0010736,
          0.0010747,
          0.0010757,
          0.0010767,
          0.0010777,
          0.0010787,
          0.0010797,
          0.0010808,
          0.0010818,
          0.0010828,
          0.0010838,
          0.0010849,
          0.0010859,
          0.0010869,
          0.001088,
          0.001089,
          0.00109,
          0.0010911,
          0.0010921,
          0.0010932,
          0.0010942,
          0.0010952,
          0.0010963,
          0.0010973,
          0.0010984,
          0.0010994,
          0.0011005,
          0.0011015,
          0.0011026,
          0.0011036,
          0.0011047,
          0.0011058,
          0.0011068,
          0.0011079,
          0.0011089,
          0.00111,
          0.0011111,
          0.0011121,
          0.0011132,
          0.0011143,
          0.0011154,
          0.0011164,
          0.0011175,
          0.0011186,
          0.0011197,
          0.0011207,
          0.0011218,
          0.0011229,
          0.001124,
          0.0011251,
          0.0011262,
          0.0011273,
          0.0011283,
          0.0011294,
          0.0011305,
          0.0011316,
          0.0011327,
          0.0011338,
          0.0011349,
          0.001136,
          0.0011371,
          0.0011382,
          0.0011393,
          0.0011405,
          0.0011416,
          0.0011427,
          0.0011438,
          0.0011449,
          0.001146,
          0.0011471,
          0.0011483,
          0.0011494,
          0.0011505,
          0.0011516,
          0.0011528,
          0.0011539,
          0.001155,
          0.0011561,
          0.0011573,
          0.0011584,
          0.0011596,
          0.0011607,
          0.0011618,
          0.001163,
          0.0011641,
          0.0011653,
          0.0011664,
          0.0011676,
          0.0011687,
          0.0011699,
          0.001171,
          0.0011722,
          0.0011733,
          0.0011745,
          0.0011756,
          0.0011768,
          0.001178,
          0.0011791,
          0.0011803,
          0.0011815,
          0.0011826,
          0.0011838,
          0.001185,
          0.0011862,
          0.0011873,
          0.0011885,
          0.0011897,
          0.0011909,
          0.0011921,
          0.0011933,
          0.0011944,
          0.0011956,
          0.0011968,
          0.001198,
          0.0011992,
          0.0012004,
          0.0012016,
          0.0012028,
          0.001204,
          0.0012052,
          0.0012064,
          0.0012076,
          0.0012088,
          0.0012101,
          0.0012113,
          0.0012125,
          0.0012137,
          0.0012149,
          0.0012161,
          0.0012174,
          0.0012186,
          0.0012198,
          0.0012211,
          0.0012223,
          0.0012235,
          0.0012247,
          0.001226,
          0.0012272,
          0.0012285,
          0.0012297,
          0.0012309,
          0.0012322,
          0.0012334,
          0.0012347,
          0.0012359,
          0.0012372,
          0.0012384,
          0.0012397,
          0.001241,
          0.0012422,
          0.0012435,
          0.0012447,
          0.001246,
          0.0012473,
          0.0012486,
          0.0012498,
          0.0012511,
          0.0012524,
          0.0012536,
          0.0012549,
          0.0012562,
          0.0012575,
          0.0012588,
          0.0012601,
          0.0012614,
          0.0012626,
          0.0012639,
          0.0012652,
          0.0012665,
          0.0012678,
          0.0012691,
          0.0012704,
          0.0012717,
          0.0012731,
          0.0012744,
          0.0012757,
          0.001277,
          0.0012783,
          0.0012796,
          0.0012809,
          0.0012823,
          0.0012836,
          0.0012849,
          0.0012862,
          0.0012876,
          0.0012889,
          0.0012902,
          0.0012916,
          0.0012929,
          0.0012942,
          0.0012956,
          0.0012969,
          0.0012983,
          0.0012996,
          0.001301,
          0.0013023,
          0.0013037,
          0.0013051,
          0.0013064,
          0.0013078,
          0.0013091,
          0.0013105,
          0.0013119,
          0.0013132,
          0.0013146,
          0.001316,
          0.0013174,
          0.0013187,
          0.0013201,
          0.0013215,
          0.0013229,
          0.0013243,
          0.0013257,
          0.0013271,
          0.0013284,
          0.0013298,
          0.0013312,
          0.0013326,
          0.001334,
          0.0013355,
          0.0013369,
          0.0013383,
          0.0013397,
          0.0013411,
          0.0013425,
          0.0013439,
          0.0013453,
          0.0013468,
          0.0013482,
          0.0013496,
          0.0013511,
          0.0013525,
          0.0013539,
          0.0013554,
          0.0013568,
          0.0013582,
          0.0013597,
          0.0013611,
          0.0013626,
          0.001364,
          0.0013655,
          0.0013669,
          0.0013684,
          0.0013698,
          0.0013713,
          0.0013728,
          0.0013742,
          0.0013757,
          0.0013772,
          0.0013787,
          0.0013801,
          0.0013816,
          0.0013831,
          0.0013846,
          0.0013861,
          0.0013875,
          0.001389,
          0.0013905,
          0.001392,
          0.0013935,
          0.001395,
          0.0013965,
          0.001398,
          0.0013995,
          0.001401,
          0.0014026,
          0.0014041,
          0.0014056,
          0.0014071,
          0.0014086,
          0.0014102,
          0.0014117,
          0.0014132,
          0.0014147,
          0.0014163,
          0.0014178,
          0.0014194,
          0.0014209,
          0.0014224,
          0.001424,
          0.0014255,
          0.0014271,
          0.0014286,
          0.0014302,
          0.0014318,
          0.0014333,
          0.0014349,
          0.0014364,
          0.001438,
          0.0014396,
          0.0014412,
          0.0014427,
          0.0014443,
          0.0014459,
          0.0014475,
          0.0014491,
          0.0014507,
          0.0014523,
          0.0014539,
          0.0014555,
          0.0014571,
          0.0014587,
          0.0014603,
          0.0014619,
          0.0014635,
          0.0014651,
          0.0014667,
          0.0014683,
          0.00147,
          0.0014716,
          0.0014732,
          0.0014748,
          0.0014765,
          0.0014781,
          0.0014798,
          0.0014814,
          0.001483,
          0.0014847,
          0.0014863,
          0.001488,
          0.0014896,
          0.0014913,
          0.001493,
          0.0014946,
          0.0014963,
          0.001498,
          0.0014996,
          0.0015013,
          0.001503,
          0.0015047,
          0.0015063,
          0.001508,
          0.0015097,
          0.0015114,
          0.0015131,
          0.0015148,
          0.0015165,
          0.0015182,
          0.0015199,
          0.0015216,
          0.0015233,
          0.001525,
          0.0015268,
          0.0015285,
          0.0015302,
          0.0015319,
          0.0015337,
          0.0015354,
          0.0015371,
          0.0015389,
          0.0015406,
          0.0015423,
          0.0015441,
          0.0015458,
          0.0015476,
          0.0015494,
          0.0015511,
          0.0015529,
          0.0015546,
          0.0015564,
          0.0015582,
          0.0015599,
          0.0015617,
          0.0015635,
          0.0015653,
          0.0015671,
          0.0015689,
          0.0015707,
          0.0015724,
          0.0015742,
          0.001576,
          0.0015779,
          0.0015797,
          0.0015815,
          0.0015833,
          0.0015851,
          0.0015869,
          0.0015887,
          0.0015906,
          0.0015924,
          0.0015942,
          0.0015961,
          0.0015979,
          0.0015997,
          0.0016016,
          0.0016034,
          0.0016053,
          0.0016071,
          0.001609,
          0.0016109,
          0.0016127,
          0.0016146,
          0.0016165,
          0.0016183,
          0.0016202,
          0.0016221,
          0.001624,
          0.0016259,
          0.0016278,
          0.0016296,
          0.0016315,
          0.0016334,
          0.0016354,
          0.0016373,
          0.0016392,
          0.0016411,
          0.001643,
          0.0016449,
          0.0016468,
          0.0016488,
          0.0016507,
          0.0016526,
          0.0016546,
          0.0016565,
          0.0016585,
          0.0016604,
          0.0016624,
          0.0016643,
          0.0016663,
          0.0016682,
          0.0016702,
          0.0016722,
          0.0016741,
          0.0016761,
          0.0016781,
          0.0016801,
          0.0016821,
          0.001684,
          0.001686,
          0.001688,
          0.00169,
          0.001692,
          0.001694,
          0.0016961,
          0.0016981,
          0.0017001,
          0.0017021,
          0.0017041,
          0.0017062,
          0.0017082,
          0.0017102,
          0.0017123,
          0.0017143,
          0.0017164,
          0.0017184,
          0.0017205,
          0.0017225,
          0.0017246,
          0.0017266,
          0.0017287,
          0.0017308,
          0.0017329,
          0.0017349,
          0.001737,
          0.0017391,
          0.0017412,
          0.0017433,
          0.0017454,
          0.0017475,
          0.0017496,
          0.0017517,
          0.0017538,
          0.001756,
          0.0017581,
          0.0017602,
          0.0017623,
          0.0017645,
          0.0017666,
          0.0017687,
          0.0017709,
          0.001773,
          0.0017752,
          0.0017773,
          0.0017795,
          0.0017817,
          0.0017838,
          0.001786,
          0.0017882,
          0.0017904,
          0.0017926,
          0.0017947,
          0.0017969,
          0.0017991,
          0.0018013,
          0.0018035,
          0.0018057,
          0.001808,
          0.0018102,
          0.0018124,
          0.0018146,
          0.0018168,
          0.0018191,
          0.0018213,
          0.0018236,
          0.0018258,
          0.0018281,
          0.0018303,
          0.0018326,
          0.0018348,
          0.0018371,
          0.0018394,
          0.0018416,
          0.0018439,
          0.0018462,
          0.0018485,
          0.0018508,
          0.0018531,
          0.0018554,
          0.0018577,
          0.00186,
          0.0018623,
          0.0018646,
          0.0018669,
          0.0018693,
          0.0018716,
          0.0018739,
          0.0018763,
          0.0018786,
          0.001881,
          0.0018833,
          0.0018857,
          0.001888,
          0.0018904,
          0.0018928,
          0.0018951,
          0.0018975,
          0.0018999,
          0.0019023,
          0.0019047,
          0.0019071,
          0.0019095,
          0.0019119,
          0.0019143,
          0.0019167,
          0.0019191,
          0.0019216,
          0.001924,
          0.0019264,
          0.0019289,
          0.0019313,
          0.0019338,
          0.0019362,
          0.0019387,
          0.0019411,
          0.0019436,
          0.0019461,
          0.0019485,
          0.001951,
          0.0019535,
          0.001956,
          0.0019585,
          0.001961,
          0.0019635,
          0.001966,
          0.0019685,
          0.001971,
          0.0019736,
          0.0019761,
          0.0019786,
          0.0019812,
          0.0019837,
          0.0019862,
          0.0019888,
          0.0019914,
          0.0019939,
          0.0019965,
          0.0019991,
          0.0020016,
          0.0020042,
          0.0020068,
          0.0020094,
          0.002012,
          0.0020146,
          0.0020172,
          0.0020198,
          0.0020224,
          0.0020251,
          0.0020277,
          0.0020303,
          0.002033,
          0.0020356,
          0.0020383,
          0.0020409,
          0.0020436,
          0.0020462,
          0.0020489,
          0.0020516,
          0.0020543,
          0.0020569,
          0.0020596,
          0.0020623,
          0.002065,
          0.0020677,
          0.0020704,
          0.0020732,
          0.0020759,
          0.0020786,
          0.0020813,
          0.0020841,
          0.0020868,
          0.0020896,
          0.0020923,
          0.0020951,
          0.0020979,
          0.0021006,
          0.0021034,
          0.0021062,
          0.002109,
          0.0021118,
          0.0021146,
          0.0021174,
          0.0021202,
          0.002123,
          0.0021258,
          0.0021286,
          0.0021315,
          0.0021343,
          0.0021372,
          0.00214,
          0.0021429,
          0.0021457,
          0.0021486,
          0.0021515,
          0.0021543,
          0.0021572,
          0.0021601,
          0.002163,
          0.0021659,
          0.0021688,
          0.0021717,
          0.0021746,
          0.0021776,
          0.0021805,
          0.0021834,
          0.0021864,
          0.0021893,
          0.0021923,
          0.0021952,
          0.0021982,
          0.0022012,
          0.0022042,
          0.0022071,
          0.0022101,
          0.0022131,
          0.0022161,
          0.0022191,
          0.0022221,
          0.0022252,
          0.0022282,
          0.0022312,
          0.0022343,
          0.0022373,
          0.0022404,
          0.0022434,
          0.0022465,
          0.0022496,
          0.0022526,
          0.0022557,
          0.0022588,
          0.0022619,
          0.002265,
          0.0022681,
          0.0022712,
          0.0022744,
          0.0022775,
          0.0022806,
          0.0022838,
          0.0022869,
          0.0022901,
          0.0022932,
          0.0022964,
          0.0022996,
          0.0023027,
          0.0023059,
          0.0023091,
          0.0023123,
          0.0023155,
          0.0023187,
          0.002322,
          0.0023252,
          0.0023284,
          0.0023317,
          0.0023349,
          0.0023382,
          0.0023414,
          0.0023447,
          0.002348,
          0.0023512,
          0.0023545,
          0.0023578,
          0.0023611,
          0.0023644,
          0.0023678,
          0.0023711,
          0.0023744,
          0.0023777,
          0.0023811,
          0.0023844,
          0.0023878,
          0.0023912,
          0.0023945,
          0.0023979,
          0.0024013,
          0.0024047,
          0.0024081,
          0.0024115,
          0.0024149,
          0.0024183,
          0.0024218,
          0.0024252,
          0.0024287,
          0.0024321,
          0.0024356,
          0.002439,
          0.0024425,
          0.002446,
          0.0024495,
          0.002453,
          0.0024565,
          0.00246,
          0.0024635,
          0.002467,
          0.0024706,
          0.0024741,
          0.0024777,
          0.0024812,
          0.0024848,
          0.0024884,
          0.0024919,
          0.0024955,
          0.0024991,
          0.0025027,
          0.0025063,
          0.0025099,
          0.0025136,
          0.0025172,
          0.0025209,
          0.0025245,
          0.0025282,
          0.0025318,
          0.0025355,
          0.0025392,
          0.0025429,
          0.0025466,
          0.0025503,
          0.002554,
          0.0025577,
          0.0025614,
          0.0025652,
          0.0025689,
          0.0025727,
          0.0025764,
          0.0025802,
          0.002584,
          0.0025878,
          0.0025916,
          0.0025954,
          0.0025992,
          0.002603,
          0.0026069,
          0.0026107,
          0.0026145,
          0.0026184,
          0.0026223,
          0.0026261,
          0.00263,
          0.0026339,
          0.0026378,
          0.0026417,
          0.0026456,
          0.0026496,
          0.0026535,
          0.0026574,
          0.0026614,
          0.0026653,
          0.0026693,
          0.0026733,
          0.0026773,
          0.0026813,
          0.0026853,
          0.0026893,
          0.0026933,
          0.0026973,
          0.0027014,
          0.0027054,
          0.0027095,
          0.0027136,
          0.0027176,
          0.0027217,
          0.0027258,
          0.0027299,
          0.002734,
          0.0027382,
          0.0027423,
          0.0027464,
          0.0027506,
          0.0027547,
          0.0027589,
          0.0027631,
          0.0027673,
          0.0027715,
          0.0027757,
          0.0027799,
          0.0027841,
          0.0027884,
          0.0027926,
          0.0027969,
          0.0028011,
          0.0028054,
          0.0028097,
          0.002814,
          0.0028183,
          0.0028226,
          0.0028269,
          0.0028313,
          0.0028356,
          0.00284,
          0.0028443,
          0.0028487,
          0.0028531,
          0.0028575,
          0.0028619,
          0.0028663,
          0.0028707,
          0.0028752,
          0.0028796,
          0.0028841,
          0.0028886,
          0.002893,
          0.0028975,
          0.002902,
          0.0029065,
          0.0029111,
          0.0029156,
          0.0029201,
          0.0029247,
          0.0029292,
          0.0029338,
          0.0029384,
          0.002943,
          0.0029476,
          0.0029522,
          0.0029568,
          0.0029615,
          0.0029661,
          0.0029708,
          0.0029754,
          0.0029801,
          0.0029848,
          0.0029895,
          0.0029942,
          0.002999,
          0.0030037,
          0.0030084,
          0.0030132,
          0.003018,
          0.0030228,
          0.0030276,
          0.0030324,
          0.0030372,
          0.003042,
          0.0030468,
          0.0030517,
          0.0030566,
          0.0030614,
          0.0030663,
          0.0030712,
          0.0030761,
          0.003081,
          0.003086,
          0.0030909,
          0.0030959,
          0.0031009,
          0.0031058,
          0.0031108,
          0.0031158,
          0.0031208,
          0.0031259,
          0.0031309,
          0.003136,
          0.003141,
          0.0031461,
          0.0031512,
          0.0031563,
          0.0031614,
          0.0031665,
          0.0031717,
          0.0031768,
          0.003182,
          0.0031872,
          0.0031924,
          0.0031976,
          0.0032028,
          0.003208,
          0.0032133,
          0.0032185,
          0.0032238,
          0.0032291,
          0.0032344,
          0.0032397,
          0.003245,
          0.0032503,
          0.0032557,
          0.003261,
          0.0032664,
          0.0032718,
          0.0032772,
          0.0032826,
          0.003288,
          0.0032934,
          0.0032989,
          0.0033044,
          0.0033098,
          0.0033153,
          0.0033208,
          0.0033264,
          0.0033319,
          0.0033374,
          0.003343,
          0.0033486,
          0.0033542,
          0.0033598,
          0.0033654,
          0.003371,
          0.0033767,
          0.0033823,
          0.003388,
          0.0033937,
          0.0033994,
          0.0034051,
          0.0034108,
          0.0034166,
          0.0034223,
          0.0034281,
          0.0034339,
          0.0034397,
          0.0034455,
          0.0034514,
          0.0034572,
          0.0034631,
          0.003469,
          0.0034749,
          0.0034808,
          0.0034867,
          0.0034926,
          0.0034986,
          0.0035045,
          0.0035105,
          0.0035165,
          0.0035225,
          0.0035286,
          0.0035346,
          0.0035407,
          0.0035468,
          0.0035529,
          0.003559,
          0.0035651,
          0.0035712,
          0.0035774,
          0.0035836,
          0.0035897,
          0.003596,
          0.0036022,
          0.0036084,
          0.0036147,
          0.0036209,
          0.0036272,
          0.0036335,
          0.0036398,
          0.0036462,
          0.0036525,
          0.0036589,
          0.0036653,
          0.0036717,
          0.0036781,
          0.0036845,
          0.003691,
          0.0036974,
          0.0037039,
          0.0037104,
          0.003717,
          0.0037235,
          0.0037301,
          0.0037366,
          0.0037432,
          0.0037498,
          0.0037564,
          0.0037631,
          0.0037697,
          0.0037764,
          0.0037831,
          0.0037898,
          0.0037966,
          0.0038033,
          0.0038101,
          0.0038169,
          0.0038237,
          0.0038305,
          0.0038373,
          0.0038442,
          0.0038511,
          0.0038579,
          0.0038649,
          0.0038718,
          0.0038787,
          0.0038857,
          0.0038927,
          0.0038997,
          0.0039067,
          0.0039138,
          0.0039208,
          0.0039279,
          0.003935,
          0.0039421,
          0.0039493,
          0.0039564,
          0.0039636,
          0.0039708,
          0.003978,
          0.0039853,
          0.0039925,
          0.0039998,
          0.0040071,
          0.0040144,
          0.0040218,
          0.0040291,
          0.0040365,
          0.0040439,
          0.0040513,
          0.0040588,
          0.0040662,
          0.0040737,
          0.0040812,
          0.0040887,
          0.0040963,
          0.0041038,
          0.0041114,
          0.004119,
          0.0041266,
          0.0041343,
          0.004142,
          0.0041497,
          0.0041574,
          0.0041651,
          0.0041729,
          0.0041806,
          0.0041884,
          0.0041962,
          0.0042041,
          0.004212,
          0.0042198,
          0.0042277,
          0.0042357,
          0.0042436,
          0.0042516,
          0.0042596,
          0.0042676,
          0.0042757,
          0.0042837,
          0.0042918,
          0.0042999,
          0.0043081,
          0.0043162,
          0.0043244,
          0.0043326,
          0.0043408,
          0.0043491,
          0.0043574,
          0.0043657,
          0.004374,
          0.0043823,
          0.0043907,
          0.0043991,
          0.0044075,
          0.004416,
          0.0044244,
          0.0044329,
          0.0044414,
          0.00445,
          0.0044585,
          0.0044671,
          0.0044757,
          0.0044844,
          0.004493,
          0.0045017,
          0.0045104,
          0.0045192,
          0.0045279,
          0.0045367,
          0.0045456,
          0.0045544,
          0.0045633,
          0.0045722,
          0.0045811,
          0.00459,
          0.004599,
          0.004608,
          0.004617,
          0.0046261,
          0.0046351,
          0.0046443,
          0.0046534,
          0.0046625,
          0.0046717,
          0.0046809,
          0.0046902,
          0.0046994,
          0.0047087,
          0.0047181,
          0.0047274,
          0.0047368,
          0.0047462,
          0.0047556,
          0.0047651,
          0.0047746,
          0.0047841,
          0.0047937,
          0.0048032,
          0.0048128,
          0.0048225,
          0.0048321,
          0.0048418,
          0.0048515,
          0.0048613,
          0.0048711,
          0.0048809,
          0.0048907,
          0.0049006,
          0.0049105,
          0.0049204,
          0.0049304,
          0.0049404,
          0.0049504,
          0.0049604,
          0.0049705,
          0.0049806,
          0.0049908,
          0.0050009,
          0.0050111,
          0.0050214,
          0.0050316,
          0.0050419,
          0.0050523,
          0.0050626,
          0.005073,
          0.0050835,
          0.0050939,
          0.0051044,
          0.0051149,
          0.0051255,
          0.0051361,
          0.0051467,
          0.0051573,
          0.005168,
          0.0051788,
          0.0051895,
          0.0052003,
          0.0052111,
          0.005222,
          0.0052329,
          0.0052438,
          0.0052547,
          0.0052657,
          0.0052768,
          0.0052878,
          0.0052989,
          0.00531,
          0.0053212,
          0.0053324,
          0.0053436,
          0.0053549,
          0.0053662,
          0.0053776,
          0.0053889,
          0.0054004,
          0.0054118,
          0.0054233,
          0.0054348,
          0.0054464,
          0.005458,
          0.0054696,
          0.0054813,
          0.005493,
          0.0055047,
          0.0055165,
          0.0055284,
          0.0055402,
          0.0055521,
          0.0055641,
          0.005576,
          0.005588,
          0.0056001,
          0.0056122,
          0.0056243,
          0.0056365,
          0.0056487,
          0.005661,
          0.0056732,
          0.0056856,
          0.0056979,
          0.0057104,
          0.0057228,
          0.0057353,
          0.0057478,
          0.0057604,
          0.005773,
          0.0057857,
          0.0057984,
          0.0058111,
          0.0058239,
          0.0058367,
          0.0058496,
          0.0058625,
          0.0058755,
          0.0058885,
          0.0059015,
          0.0059146,
          0.0059277,
          0.0059409,
          0.0059541,
          0.0059674,
          0.0059807,
          0.005994,
          0.0060074,
          0.0060208,
          0.0060343,
          0.0060478,
          0.0060614,
          0.006075,
          0.0060887,
          0.0061024,
          0.0061162,
          0.00613,
          0.0061438,
          0.0061577,
          0.0061717,
          0.0061857,
          0.0061997,
          0.0062138,
          0.0062279,
          0.0062421,
          0.0062563,
          0.0062706,
          0.0062849,
          0.0062993,
          0.0063137,
          0.0063282,
          0.0063428,
          0.0063573,
          0.006372,
          0.0063866,
          0.0064014,
          0.0064162,
          0.006431,
          0.0064459,
          0.0064608,
          0.0064758,
          0.0064908,
          0.0065059,
          0.0065211,
          0.0065363,
          0.0065515,
          0.0065668,
          0.0065822,
          0.0065976,
          0.0066131,
          0.0066286,
          0.0066442,
          0.0066598,
          0.0066755,
          0.0066912,
          0.006707,
          0.0067229,
          0.0067388,
          0.0067547,
          0.0067707,
          0.0067868,
          0.006803,
          0.0068192,
          0.0068354,
          0.0068517,
          0.0068681,
          0.0068845,
          0.006901,
          0.0069176,
          0.0069342,
          0.0069508,
          0.0069675,
          0.0069843,
          0.0070012,
          0.0070181,
          0.0070351,
          0.0070521,
          0.0070692,
          0.0070863,
          0.0071036,
          0.0071208,
          0.0071382,
          0.0071556,
          0.0071731,
          0.0071906,
          0.0072082,
          0.0072258,
          0.0072436,
          0.0072614,
          0.0072792,
          0.0072972,
          0.0073151,
          0.0073332,
          0.0073513,
          0.0073695,
          0.0073878,
          0.0074061,
          0.0074245,
          0.007443,
          0.0074615,
          0.0074801,
          0.0074988,
          0.0075175,
          0.0075363,
          0.0075552,
          0.0075742,
          0.0075932,
          0.0076123,
          0.0076315,
          0.0076507,
          0.00767,
          0.0076894,
          0.0077089,
          0.0077284,
          0.007748,
          0.0077677,
          0.0077875,
          0.0078073,
          0.0078272,
          0.0078472,
          0.0078673,
          0.0078874,
          0.0079076,
          0.0079279,
          0.0079483,
          0.0079688,
          0.0079893,
          0.0080099,
          0.0080306,
          0.0080514,
          0.0080722,
          0.0080932,
          0.0081142,
          0.0081353,
          0.0081565,
          0.0081777,
          0.0081991,
          0.0082205,
          0.008242,
          0.0082636,
          0.0082853,
          0.0083071,
          0.0083289,
          0.0083509,
          0.0083729,
          0.008395,
          0.0084172,
          0.0084395,
          0.0084619,
          0.0084844,
          0.0085069,
          0.0085296,
          0.0085523,
          0.0085751,
          0.0085981,
          0.0086211,
          0.0086442,
          0.0086674,
          0.0086907,
          0.0087141,
          0.0087375,
          0.0087611,
          0.0087848,
          0.0088086,
          0.0088324,
          0.0088564,
          0.0088805,
          0.0089046,
          0.0089289,
          0.0089532,
          0.0089777,
          0.0090022,
          0.0090269,
          0.0090517,
          0.0090765,
          0.0091015,
          0.0091266,
          0.0091517,
          0.009177,
          0.0092024,
          0.0092279,
          0.0092535,
          0.0092791,
          0.009305,
          0.0093309,
          0.0093569,
          0.009383,
          0.0094092,
          0.0094356,
          0.0094621,
          0.0094886,
          0.0095153,
          0.0095421,
          0.009569,
          0.0095961,
          0.0096232,
          0.0096504,
          0.0096778,
          0.0097053,
          0.0097329,
          0.0097606,
          0.0097885,
          0.0098164,
          0.0098445,
          0.0098727,
          0.009901,
          0.0099295,
          0.009958,
          0.0099867,
          0.010016,
          0.010044,
          0.010074,
          0.010103,
          0.010132,
          0.010162,
          0.010191,
          0.010221,
          0.010251,
          0.010281,
          0.010311,
          0.010341,
          0.010371,
          0.010402,
          0.010432,
          0.010463,
          0.010494,
          0.010525,
          0.010556,
          0.010588,
          0.010619,
          0.010651,
          0.010682,
          0.010714,
          0.010746,
          0.010778,
          0.010811,
          0.010843,
          0.010876,
          0.010909,
          0.010941,
          0.010975,
          0.011008,
          0.011041,
          0.011075,
          0.011108,
          0.011142,
          0.011176,
          0.01121,
          0.011244,
          0.011279,
          0.011313,
          0.011348,
          0.011383,
          0.011418,
          0.011453,
          0.011489,
          0.011524,
          0.01156,
          0.011596,
          0.011632,
          0.011668,
          0.011705,
          0.011741,
          0.011778,
          0.011815,
          0.011852,
          0.011889,
          0.011927,
          0.011964,
          0.012002,
          0.01204,
          0.012078,
          0.012116,
          0.012155,
          0.012194,
          0.012233,
          0.012272,
          0.012311,
          0.01235,
          0.01239,
          0.01243,
          0.01247,
          0.01251,
          0.01255,
          0.012591,
          0.012632,
          0.012673,
          0.012714,
          0.012755,
          0.012797,
          0.012839,
          0.012881,
          0.012923,
          0.012966,
          0.013008,
          0.013051,
          0.013094,
          0.013137,
          0.013181,
          0.013225,
          0.013268,
          0.013313,
          0.013357,
          0.013402,
          0.013446,
          0.013491,
          0.013537,
          0.013582,
          0.013628,
          0.013674,
          0.01372,
          0.013766,
          0.013813,
          0.01386,
          0.013907,
          0.013954,
          0.014002,
          0.01405,
          0.014098,
          0.014146,
          0.014195,
          0.014244,
          0.014293,
          0.014342,
          0.014392,
          0.014442,
          0.014492,
          0.014542,
          0.014593,
          0.014644,
          0.014695,
          0.014747,
          0.014798,
          0.01485,
          0.014903,
          0.014955,
          0.015008,
          0.015061,
          0.015114,
          0.015168,
          0.015222,
          0.015276,
          0.015331,
          0.015386,
          0.015441,
          0.015496,
          0.015552,
          0.015608,
          0.015664,
          0.015721,
          0.015778,
          0.015835,
          0.015893,
          0.01595,
          0.016009,
          0.016067,
          0.016126,
          0.016185,
          0.016245,
          0.016304,
          0.016365,
          0.016425,
          0.016486,
          0.016547,
          0.016609,
          0.01667,
          0.016733,
          0.016795,
          0.016858,
          0.016921,
          0.016985,
          0.017049,
          0.017113,
          0.017178,
          0.017243,
          0.017308,
          0.017374,
          0.01744,
          0.017507,
          0.017574,
          0.017641,
          0.017709,
          0.017777,
          0.017845,
          0.017914,
          0.017983,
          0.018053,
          0.018123,
          0.018194,
          0.018265,
          0.018336,
          0.018408,
          0.01848,
          0.018552,
          0.018625,
          0.018699,
          0.018773,
          0.018847,
          0.018922,
          0.018997,
          0.019073,
          0.019149,
          0.019225,
          0.019302,
          0.01938,
          0.019458,
          0.019536,
          0.019615,
          0.019695,
          0.019774,
          0.019855,
          0.019936,
          0.020017,
          0.020099,
          0.020181,
          0.020264,
          0.020347,
          0.020431,
          0.020516,
          0.020601,
          0.020686,
          0.020772,
          0.020859,
          0.020946,
          0.021033,
          0.021121,
          0.02121,
          0.021299,
          0.021389,
          0.02148,
          0.021571,
          0.021662,
          0.021754,
          0.021847,
          0.02194,
          0.022034,
          0.022129,
          0.022224,
          0.02232,
          0.022416,
          0.022513,
          0.022611,
          0.022709,
          0.022808,
          0.022907,
          0.023008,
          0.023109,
          0.02321,
          0.023312,
          0.023415,
          0.023519,
          0.023623,
          0.023728,
          0.023834,
          0.02394,
          0.024047,
          0.024155,
          0.024263,
          0.024373,
          0.024483,
          0.024593,
          0.024705,
          0.024817,
          0.02493,
          0.025044,
          0.025158,
          0.025274,
          0.02539,
          0.025507,
          0.025625,
          0.025743,
          0.025863,
          0.025983,
          0.026104,
          0.026226,
          0.026349,
          0.026472,
          0.026597,
          0.026722,
          0.026849,
          0.026976,
          0.027104,
          0.027233,
          0.027363,
          0.027494,
          0.027625,
          0.027758,
          0.027892,
          0.028027,
          0.028162,
          0.028299,
          0.028437,
          0.028575,
          0.028715,
          0.028856,
          0.028997,
          0.02914,
          0.029284,
          0.029429,
          0.029575,
          0.029722,
          0.02987,
          0.030019,
          0.03017,
          0.030321,
          0.030474,
          0.030628,
          0.030783,
          0.030939,
          0.031096,
          0.031255,
          0.031415,
          0.031576,
          0.031738,
          0.031902,
          0.032066,
          0.032233,
          0.0324,
          0.032569,
          0.032739,
          0.03291,
          0.033083,
          0.033257,
          0.033432,
          0.033609,
          0.033787,
          0.033967,
          0.034148,
          0.03433,
          0.034514,
          0.0347,
          0.034887,
          0.035075,
          0.035265,
          0.035457,
          0.03565,
          0.035845,
          0.036041,
          0.036239,
          0.036438,
          0.03664,
          0.036843,
          0.037047,
          0.037253,
          0.037461,
          0.037671,
          0.037883,
          0.038096,
          0.038311,
          0.038528,
          0.038747,
          0.038968,
          0.03919,
          0.039415,
          0.039641,
          0.039869,
          0.0401,
          0.040332,
          0.040567,
          0.040803,
          0.041041,
          0.041282,
          0.041525,
          0.04177,
          0.042017,
          0.042266,
          0.042517,
          0.042771,
          0.043027,
          0.043285,
          0.043546,
          0.043809,
          0.044074,
          0.044342,
          0.044612,
          0.044885,
          0.04516,
          0.045438,
          0.045718,
          0.046001,
          0.046287,
          0.046575,
          0.046866,
          0.04716,
          0.047456,
          0.047755,
          0.048057,
          0.048362,
          0.04867,
          0.048981,
          0.049295,
          0.049612,
          0.049932,
          0.050255,
          0.050581,
          0.05091,
          0.051243,
          0.051578,
          0.051918,
          0.05226,
          0.052606,
          0.052955,
          0.053308,
          0.053665,
          0.054024,
          0.054388,
          0.054755,
          0.055126,
          0.055501,
          0.05588,
          0.056262,
          0.056649,
          0.057039,
          0.057434,
          0.057832,
          0.058235,
          0.058642,
          0.059053,
          0.059469,
          0.059889,
          0.060313,
          0.060742,
          0.061176,
          0.061614,
          0.062057,
          0.062505,
          0.062958,
          0.063415,
          0.063878,
          0.064346,
          0.064818,
          0.065296,
          0.06578,
          0.066269,
          0.066763,
          0.067263,
          0.067768,
          0.068279,
          0.068796,
          0.069319,
          0.069848,
          0.070382,
          0.070924,
          0.071471,
          0.072024,
          0.072585,
          0.073151,
          0.073725,
          0.074305,
          0.074892,
          0.075486,
          0.076087,
          0.076695,
          0.077311,
          0.077934,
          0.078564,
          0.079203,
          0.079849,
          0.080503,
          0.081165,
          0.081835,
          0.082514,
          0.083201,
          0.083897,
          0.084601,
          0.085314,
          0.086037,
          0.086769,
          0.08751,
          0.08826,
          0.089021,
          0.089791,
          0.090571,
          0.091361,
          0.092162,
          0.092974,
          0.093796,
          0.094629,
          0.095473,
          0.096329,
          0.097196,
          0.098075,
          0.098966,
          0.099869,
          0.10002,
          0.10038,
          0.10074,
          0.1011,
          0.10146,
          0.10183,
          0.1022,
          0.10257,
          0.10294,
          0.10332,
          0.10369,
          0.10407,
          0.10445,
          0.10483,
          0.10522,
          0.1056,
          0.10599,
          0.10638,
          0.10678,
          0.10717,
          0.10757,
          0.10797,
          0.10837,
          0.10878,
          0.10918,
          0.10959,
          0.11,
          0.11042,
          0.11083,
          0.11125,
          0.11167,
          0.11209,
          0.11252,
          0.11295,
          0.11338,
          0.11381,
          0.11424,
          0.11468,
          0.11512,
          0.11556,
          0.11601,
          0.11646,
          0.11691,
          0.11736,
          0.11781,
          0.11827,
          0.11873,
          0.1192,
          0.11966,
          0.12013,
          0.1206,
          0.12108,
          0.12156,
          0.12204,
          0.12252,
          0.12301,
          0.1235,
          0.12399,
          0.12448,
          0.12498,
          0.12548,
          0.12598,
          0.12649,
          0.127,
          0.12751,
          0.12803,
          0.12855,
          0.12907,
          0.1296,
          0.13013,
          0.13066,
          0.13119,
          0.13173,
          0.13227,
          0.13282,
          0.13337,
          0.13392,
          0.13447,
          0.13503,
          0.1356,
          0.13616,
          0.13673,
          0.1373,
          0.13788,
          0.13846,
          0.13905,
          0.13963,
          0.14022,
          0.14082,
          0.14142,
          0.14202,
          0.14263,
          0.14324,
          0.14385,
          0.14447,
          0.14509,
          0.14572,
          0.14635,
          0.14699,
          0.14762,
          0.14827,
          0.14891,
          0.14957,
          0.15022,
          0.15088,
          0.15155,
          0.15221,
          0.15289,
          0.15357,
          0.15425,
          0.15493,
          0.15563,
          0.15632,
          0.15702,
          0.15773,
          0.15844,
          0.15915,
          0.15987,
          0.1606,
          0.16133,
          0.16206,
          0.1628,
          0.16355,
          0.1643,
          0.16505,
          0.16581,
          0.16658,
          0.16735,
          0.16812,
          0.16891,
          0.16969,
          0.17049,
          0.17128,
          0.17209,
          0.1729,
          0.17371,
          0.17453,
          0.17536,
          0.17619,
          0.17703,
          0.17788,
          0.17873,
          0.17958,
          0.18045,
          0.18131,
          0.18219,
          0.18307,
          0.18396,
          0.18486,
          0.18576,
          0.18666,
          0.18758,
          0.1885,
          0.18943,
          0.19036,
          0.19131,
          0.19225,
          0.19321,
          0.19417,
          0.19514,
          0.19612,
          0.19711,
          0.1981,
          0.1991,
          0.20011,
          0.20112,
          0.20215,
          0.20318,
          0.20421,
          0.20526,
          0.20632,
          0.20738,
          0.20845,
          0.20953,
          0.21062,
          0.21171,
          0.21282,
          0.21393,
          0.21505,
          0.21619,
          0.21733,
          0.21848,
          0.21963,
          0.2208,
          0.22198,
          0.22317,
          0.22436,
          0.22557,
          0.22678,
          0.22801,
          0.22924,
          0.23049,
          0.23174,
          0.23301,
          0.23428,
          0.23557,
          0.23687,
          0.23818,
          0.2395,
          0.24083,
          0.24217,
          0.24352,
          0.24488,
          0.24626,
          0.24764,
          0.24904,
          0.25045,
          0.25187,
          0.25331,
          0.25475,
          0.25621,
          0.25769,
          0.25917,
          0.26067,
          0.26218,
          0.2637,
          0.26524,
          0.26679,
          0.26835,
          0.26993,
          0.27152,
          0.27313,
          0.27475,
          0.27638,
          0.27803,
          0.27969,
          0.28137,
          0.28307,
          0.28478,
          0.2865,
          0.28824,
          0.29,
          0.29177,
          0.29356,
          0.29536,
          0.29719,
          0.29903,
          0.30088,
          0.30276,
          0.30465,
          0.30656,
          0.30848,
          0.31043,
          0.31239,
          0.31437,
          0.31637,
          0.31839,
          0.32043,
          0.32249,
          0.32457,
          0.32667,
          0.32879,
          0.33093,
          0.33309,
          0.33528,
          0.33748,
          0.33971,
          0.34196,
          0.34423,
          0.34652,
          0.34884,
          0.35118,
          0.35354,
          0.35593,
          0.35834,
          0.36077,
          0.36323,
          0.36572,
          0.36823,
          0.37077,
          0.37333,
          0.37593,
          0.37854,
          0.38119,
          0.38386,
          0.38656,
          0.38929,
          0.39205,
          0.39484,
          0.39766,
          0.40051,
          0.40339,
          0.4063,
          0.40924,
          0.41221,
          0.41522,
          0.41826,
          0.42133,
          0.42444,
          0.42758,
          0.43076,
          0.43397,
          0.43722,
          0.4405,
          0.44383,
          0.44719,
          0.45058,
          0.45402,
          0.4575,
          0.46101,
          0.46457,
          0.46817,
          0.47181,
          0.47549,
          0.47922,
          0.48299,
          0.48681,
          0.49067,
          0.49457,
          0.49853,
          0.50253,
          0.50658,
          0.51068,
          0.51482,
          0.51902,
          0.52327,
          0.52758,
          0.53193,
          0.53635,
          0.54081,
          0.54533,
          0.54991,
          0.55455,
          0.55924,
          0.564,
          0.56882,
          0.57369,
          0.57864,
          0.58364,
          0.58871,
          0.59385,
          0.59905,
          0.60433,
          0.60967,
          0.61509,
          0.62057,
          0.62613,
          0.63177,
          0.63748,
          0.64327,
          0.64914,
          0.65509,
          0.66112,
          0.66724,
          0.67344,
          0.67973,
          0.68611,
          0.69257,
          0.69913,
          0.70578,
          0.71253,
          0.71937,
          0.72632,
          0.73336,
          0.74051,
          0.74776,
          0.75512,
          0.76259,
          0.77017,
          0.77787,
          0.78568,
          0.79361,
          0.80165,
          0.80983,
          0.81812,
          0.82655,
          0.83511,
          0.8438,
          0.85262,
          0.86159,
          0.8707,
          0.87995,
          0.88935,
          0.8989,
          0.90861,
          0.91848,
          0.9285,
          0.9387,
          0.94906,
          0.95959,
          0.9703,
          0.98119,
          0.99227,
          1.0035,
          1.015,
          1.0266,
          1.0385,
          1.0506,
          1.0628,
          1.0753,
          1.088,
          1.101,
          1.1141,
          1.1275,
          1.1412,
          1.1551,
          1.1692,
          1.1837,
          1.1984,
          1.2133,
          1.2286,
          1.2441,
          1.2599,
          1.2761,
          1.2925,
          1.3093,
          1.3264,
          1.3438,
          1.3616,
          1.3797,
          1.3982,
          1.4171,
          1.4363,
          1.456,
          1.476,
          1.4965,
          1.5174,
          1.5387,
          1.5605,
          1.5828,
          1.6055,
          1.6288,
          1.6525,
          1.6768,
          1.7016,
          1.7269,
          1.7529,
          1.7794,
          1.8065,
          1.8343,
          1.8627,
          1.8917,
          1.9215,
          1.9519,
          1.9831,
          2.015,
          2.0477,
          2.0813,
          2.1156,
          2.1508,
          2.1869,
          2.2239,
          2.2618,
          2.3008,
          2.3407,
          2.3817,
          2.4238,
          2.467,
          2.5114,
          2.557,
          2.6038,
          2.6519,
          2.7014,
          2.7523,
          2.8046,
          2.8584,
          2.9138,
          2.9709,
          3.0296,
          3.09,
          3.1524,
          3.2166,
          3.2827,
          3.351,
          3.4214,
          3.494,
          3.569,
          3.6464,
          3.7264,
          3.8091,
          3.8945,
          3.9828,
          4.0741,
          4.1687,
          4.2665,
          4.3679,
          4.4729,
          4.5817,
          4.6946,
          4.8117,
          4.9332,
          5.0594,
          5.1904,
          5.3267,
          5.4684,
          5.6158,
          5.7692,
          5.9291,
          6.0956,
          6.2693,
          6.4505,
          6.6397,
          6.8373,
          7.0439,
          7.26,
          7.4862,
          7.7231,
          7.9715,
          8.232,
          8.5056,
          8.793,
          9.0952,
          9.4132,
          9.7483,
          10.102,
          10.474,
          10.868,
          11.285,
          11.726,
          12.193,
          12.689,
          13.215,
          13.775,
          14.372,
          15.008,
          15.687,
          16.413,
          17.192,
          18.026,
          18.923,
          19.889,
          20.931,
          22.057,
          23.276,
          24.599,
          26.038,
          27.607,
          29.323,
          31.203,
          33.271,
          35.551,
          38.074,
          40.875,
          43.997,
          47.492,
          51.42,
          55.857,
          60.894
        ],
        [
          18.75,
          17.96,
          18.38,
          18.15,
          18.026,
          17.585,
          17.621,
          17.757,
          17.425,
          17.672,
          17.198,
          17.039,
          17.158,
          16.947,
          16.685,
          16.939,
          16.641,
          16.616,
          16.31,
          16.181,
          16.189,
          16.012,
          16.013,
          15.812,
          16.273,
          15.989,
          15.55,
          15.853,
          15.592,
          15.834,
          15.463,
          15.306,
          15.167,
          15.333,
          14.99,
          15.132,
          15.134,
          14.86,
          14.973,
          15.134,
          14.936,
          14.63,
          14.357,
          14.535,
          14.389,
          14.451,
          14.594,
          14.07,
          14.39,
          14.075,
          14.006,
          14.485,
          13.933,
          14.203,
          14.074,
          13.938,
          13.97,
          13.79,
          13.804,
          13.956,
          13.661,
          13.337,
          13.584,
          13.544,
          13.798,
          13.573,
          13.432,
          13.317,
          13.353,
          13.208,
          13.313,
          12.978,
          12.981,
          12.815,
          13.046,
          12.736,
          13.034,
          12.878,
          12.707,
          12.927,
          12.737,
          12.807,
          12.739,
          12.328,
          12.709,
          12.487,
          12.186,
          12.542,
          12.567,
          12.817,
          12.13,
          12.141,
          12.12,
          11.943,
          12.086,
          12.072,
          12.176,
          12.25,
          12.104,
          11.885,
          12.064,
          11.748,
          11.59,
          11.596,
          11.851,
          12.083,
          11.854,
          11.836,
          11.913,
          11.663,
          11.8,
          11.548,
          11.6,
          11.662,
          11.539,
          11.659,
          11.408,
          11.193,
          11.12,
          11.59,
          11.213,
          11.338,
          11.652,
          11.366,
          11.318,
          11.57,
          11.24,
          11.158,
          11.075,
          11.318,
          11.125,
          10.913,
          10.965,
          11.185,
          10.822,
          11.104,
          10.893,
          10.675,
          11.106,
          10.764,
          10.746,
          10.792,
          10.883,
          10.597,
          10.382,
          10.534,
          10.852,
          10.581,
          10.415,
          10.716,
          10.756,
          10.269,
          10.637,
          10.635,
          11.034,
          10.311,
          10.418,
          10.667,
          10.405,
          10.631,
          10.576,
          9.9647,
          10.578,
          10.321,
          10.23,
          10.482,
          10.26,
          10.403,
          10.356,
          10.283,
          10.135,
          10.237,
          10.332,
          9.9504,
          10.169,
          10.016,
          9.9194,
          9.9542,
          10.257,
          10.111,
          9.7883,
          9.9814,
          10.073,
          9.6933,
          10.035,
          10.01,
          9.8879,
          10.276,
          10.183,
          9.8688,
          10.129,
          9.7512,
          9.8277,
          9.4245,
          9.6747,
          9.7441,
          10.171,
          9.7364,
          9.5055,
          9.8372,
          9.7763,
          9.672,
          9.5054,
          9.7932,
          9.5151,
          9.7384,
          9.3857,
          9.21,
          9.414,
          9.7753,
          9.7788,
          9.4111,
          9.6895,
          9.4529,
          9.4657,
          9.455,
          9.4435,
          9.3174,
          9.2671,
          9.1768,
          9.1113,
          9.2629,
          8.8602,
          9.4268,
          9.2835,
          9.3925,
          9.101,
          9.3048,
          8.9913,
          9.2213,
          9.029,
          9.1114,
          9.0248,
          9.1076,
          8.9462,
          8.9053,
          9.0901,
          9.4146,
          9.271,
          9.1333,
          9.081,
          8.9703,
          8.6736,
          8.9659,
          8.5253,
          9.1803,
          9.0701,
          8.9624,
          9.0306,
          9.0698,
          8.9616,
          8.566,
          9.059,
          8.5701,
          8.4905,
          8.9517,
          9.0298,
          8.7397,
          8.87,
          8.6868,
          8.7855,
          8.8482,
          8.5929,
          8.485,
          8.553,
          8.8745,
          8.9927,
          8.5077,
          8.9564,
          9.1237,
          8.9916,
          8.2874,
          8.4594,
          8.4571,
          9.136,
          8.5965,
          9.1572,
          8.2667,
          8.516,
          8.5944,
          8.3498,
          8.2434,
          8.6132,
          8.4634,
          8.3866,
          8.2369,
          8.3052,
          8.3202,
          8.5659,
          8.5333,
          8.3724,
          8.1171,
          8.1474,
          8.4641,
          8.4987,
          8.3481,
          7.981,
          8.6257,
          8.6641,
          7.9109,
          8.0962,
          7.9574,
          8.2894,
          8.1617,
          7.8117,
          8.29,
          8.8133,
          8.0441,
          8.3997,
          8.4371,
          7.9841,
          8.8023,
          8.1388,
          7.8361,
          8.0434,
          8.211,
          7.7333,
          8.1164,
          8.0022,
          8.2993,
          7.9346,
          8.1903,
          8.3746,
          7.8223,
          8.0218,
          7.8441,
          7.9989,
          7.9943,
          8.1494,
          7.7754,
          8.1808,
          7.6574,
          7.4722,
          7.5411,
          8.1554,
          8.0916,
          7.5366,
          7.8881,
          8.1803,
          7.7795,
          7.9571,
          7.7242,
          7.7156,
          7.8761,
          7.9854,
          7.7907,
          7.8298,
          7.824,
          7.9697,
          7.6366,
          7.8387,
          7.9529,
          8.0166,
          7.4064,
          7.3749,
          7.3224,
          7.7598,
          7.3127,
          7.8062,
          7.7161,
          7.4003,
          7.5325,
          7.7403,
          8.0935,
          7.6893,
          7.5672,
          7.6838,
          7.7118,
          7.4785,
          7.6842,
          7.507,
          7.6144,
          7.421,
          7.4072,
          7.4745,
          7.4296,
          7.6565,
          7.5661,
          7.4696,
          7.5781,
          7.49,
          7.3742,
          7.45,
          7.5747,
          7.7107,
          7.6913,
          7.9491,
          7.6523,
          7.3556,
          7.1963,
          7.9664,
          7.2268,
          7.4676,
          7.7191,
          7.2444,
          7.4169,
          7.2894,
          7.3585,
          7.4933,
          7.2219,
          7.2271,
          7.3551,
          7.1071,
          7.7058,
          7.4739,
          7.2497,
          7.2403,
          7.2181,
          7.3671,
          7.6256,
          7.4496,
          7.2527,
          7.5829,
          7.462,
          7.4963,
          7.7595,
          7.3106,
          7.24,
          7.3228,
          7.2677,
          7.4183,
          7.4279,
          7.4614,
          7.3651,
          6.6584,
          6.8754,
          7.1565,
          6.9355,
          7.132,
          7.1109,
          6.8307,
          6.8984,
          7.8056,
          7.2185,
          7.1135,
          7.3666,
          7.5187,
          7.1962,
          6.6073,
          7.2472,
          6.9313,
          6.9875,
          7.3844,
          7.2612,
          6.7958,
          6.9642,
          6.941,
          6.9892,
          6.9525,
          7.1331,
          7.2895,
          7.3276,
          7.3385,
          6.7622,
          6.9291,
          6.8944,
          7.2028,
          6.7405,
          6.689,
          7.1168,
          6.8868,
          7.418,
          6.9652,
          6.6099,
          7.2762,
          7.2245,
          7.1241,
          6.6285,
          6.7251,
          7.0936,
          6.8514,
          7.1563,
          7.0326,
          6.8725,
          7.1134,
          6.8454,
          6.7174,
          6.495,
          6.5884,
          6.8402,
          6.4729,
          7.0098,
          6.7033,
          6.7372,
          6.7068,
          6.5577,
          6.8167,
          6.7463,
          7.1287,
          6.7196,
          7.0679,
          7.2063,
          6.5715,
          6.2898,
          6.5513,
          6.9034,
          6.7454,
          6.6718,
          6.7507,
          6.5213,
          6.7141,
          6.5299,
          6.88,
          6.5936,
          6.783,
          6.5414,
          6.5406,
          6.9212,
          6.6783,
          6.6485,
          6.9287,
          6.5785,
          6.401,
          6.5941,
          6.5875,
          6.8062,
          6.538,
          6.7071,
          6.6799,
          6.7655,
          6.1178,
          6.3604,
          6.56,
          6.5896,
          6.4439,
          6.6366,
          6.5696,
          6.8376,
          6.887,
          6.5597,
          6.5683,
          5.9733,
          6.3764,
          5.942,
          6.603,
          6.4171,
          6.5613,
          6.6604,
          6.4624,
          6.2647,
          6.6796,
          6.3609,
          6.6071,
          6.401,
          6.3379,
          6.5289,
          6.1797,
          6.8827,
          6.4202,
          6.7622,
          6.0519,
          6.2417,
          6.4118,
          6.3974,
          6.2999,
          6.7754,
          6.4953,
          6.7689,
          6.1075,
          6.3559,
          6.0673,
          6.4224,
          6.4486,
          6.4832,
          6.409,
          6.1525,
          6.7326,
          6.556,
          6.5178,
          6.3088,
          6.0154,
          6.5113,
          6.2631,
          6.7114,
          6.1397,
          6.3502,
          6.281,
          5.9382,
          6.3137,
          6.1882,
          6.2591,
          6.0,
          5.9701,
          6.4995,
          6.2395,
          5.9912,
          6.3078,
          6.3464,
          6.0562,
          5.9525,
          6.2287,
          6.0663,
          6.0842,
          5.9188,
          6.2692,
          6.5394,
          6.1564,
          6.1671,
          6.1909,
          6.0814,
          6.3049,
          6.315,
          6.0652,
          6.3005,
          6.5568,
          6.0968,
          6.0736,
          6.0345,
          6.5211,
          5.9884,
          6.0,
          6.1213,
          5.9811,
          6.0312,
          6.0184,
          6.0535,
          6.1524,
          6.3113,
          6.0932,
          6.3269,
          6.0646,
          6.5375,
          6.1694,
          5.9221,
          6.0813,
          5.8878,
          5.9355,
          6.0532,
          5.9422,
          6.0653,
          6.012,
          6.1449,
          6.0353,
          6.0631,
          6.1206,
          5.7935,
          6.0264,
          5.8969,
          6.0052,
          5.9277,
          6.0867,
          6.4983,
          5.6736,
          5.9795,
          5.7002,
          5.7678,
          6.0694,
          6.3081,
          6.1468,
          6.1116,
          6.0705,
          6.0132,
          5.9476,
          6.3061,
          5.9956,
          5.9977,
          5.8535,
          5.9412,
          5.8451,
          5.8733,
          6.166,
          6.1623,
          5.7213,
          5.8575,
          6.3737,
          6.289,
          6.0974,
          6.3491,
          6.2866,
          5.5864,
          5.6027,
          6.0351,
          5.9372,
          6.0715,
          6.0259,
          6.2551,
          5.6532,
          5.7397,
          6.0332,
          5.7397,
          6.084,
          5.8462,
          5.7681,
          5.9313,
          5.7742,
          6.0368,
          5.579,
          5.7903,
          5.6852,
          5.4291,
          5.7393,
          6.0829,
          5.8977,
          5.7164,
          5.6449,
          6.0416,
          5.7395,
          5.8576,
          5.6586,
          5.9875,
          5.8211,
          5.8481,
          5.7244,
          5.7458,
          5.9375,
          5.796,
          5.9794,
          5.9788,
          5.6843,
          5.5847,
          5.4353,
          5.7253,
          6.0877,
          5.6862,
          6.0198,
          5.8823,
          5.527,
          6.3095,
          5.0834,
          5.5508,
          5.3996,
          5.5919,
          5.2755,
          5.9338,
          5.9317,
          5.8364,
          5.5427,
          5.4498,
          5.578,
          5.6619,
          5.5055,
          5.8979,
          5.5842,
          5.7206,
          5.7281,
          5.3899,
          5.6615,
          5.9412,
          5.1755,
          6.0421,
          5.705,
          5.222,
          5.5089,
          5.844,
          5.6367,
          5.4321,
          5.7447,
          5.5369,
          5.4003,
          5.5758,
          5.6731,
          5.5898,
          5.2867,
          5.7329,
          5.4628,
          5.4542,
          5.4571,
          5.3048,
          5.849,
          5.2956,
          5.2269,
          5.409,
          5.7243,
          5.7876,
          5.6047,
          5.8196,
          5.2874,
          5.3083,
          5.4302,
          5.402,
          5.4488,
          5.7664,
          5.4907,
          5.6615,
          5.3354,
          5.2786,
          5.4713,
          5.231,
          5.4905,
          5.1935,
          5.0878,
          5.7539,
          5.4956,
          5.4619,
          5.0992,
          5.1889,
          5.4663,
          5.2152,
          5.3746,
          5.2768,
          5.2597,
          5.5529,
          4.8688,
          5.3107,
          5.272,
          5.581,
          5.5342,
          5.6351,
          5.4337,
          5.2124,
          5.1683,
          5.2088,
          5.3721,
          4.9487,
          4.803,
          5.5748,
          5.3591,
          5.2364,
          5.4603,
          5.0285,
          5.1254,
          5.3006,
          4.7588,
          5.0024,
          5.0017,
          4.7604,
          5.1153,
          5.1743,
          5.2928,
          5.8237,
          4.9327,
          5.5682,
          4.9454,
          5.6244,
          5.6766,
          5.3643,
          5.6455,
          5.6275,
          4.8449,
          5.5899,
          5.5744,
          5.1464,
          5.0918,
          5.3205,
          4.964,
          4.8873,
          4.6256,
          6.172,
          4.9858,
          5.2398,
          4.9046,
          5.6172,
          5.0473,
          4.9149,
          5.8196,
          5.5458,
          5.1418,
          5.1338,
          5.0298,
          4.8826,
          4.9832,
          5.4397,
          5.4433,
          4.8735,
          5.32,
          5.0327,
          5.0462,
          5.6593,
          5.3191,
          5.5383,
          5.2023,
          5.1307,
          5.0323,
          5.3214,
          4.967,
          5.1088,
          5.1469,
          5.1167,
          4.7452,
          5.2793,
          4.7403,
          6.0313,
          4.9973,
          5.3962,
          5.4062,
          5.6517,
          5.3829,
          5.1536,
          4.9196,
          5.3762,
          5.3702,
          5.3096,
          4.769,
          5.0701,
          5.5778,
          4.9821,
          4.8676,
          5.4543,
          5.5469,
          4.7909,
          5.7271,
          5.3778,
          4.9609,
          4.5149,
          5.1791,
          5.229,
          5.3021,
          4.8343,
          4.9491,
          4.918,
          5.0345,
          4.7206,
          5.1144,
          4.9562,
          5.0625,
          5.1996,
          4.8467,
          5.2708,
          4.8249,
          5.2949,
          5.0999,
          4.835,
          4.84,
          5.1885,
          5.1827,
          4.8802,
          5.2412,
          4.9103,
          4.8584,
          5.371,
          4.812,
          5.2628,
          5.2615,
          5.274,
          4.7725,
          5.0888,
          4.9148,
          5.2004,
          5.133,
          5.2069,
          4.7904,
          4.9844,
          4.75,
          4.9762,
          4.6616,
          5.032,
          5.0691,
          4.9595,
          5.1722,
          5.1924,
          5.6648,
          5.3063,
          4.9441,
          4.5541,
          4.6005,
          4.7478,
          5.0811,
          4.8692,
          5.3054,
          4.7277,
          4.8339,
          5.2052,
          5.1938,
          5.0993,
          5.1467,
          4.3844,
          4.6143,
          4.1375,
          4.8613,
          4.7582,
          4.9295,
          5.3816,
          5.5077,
          5.3508,
          4.8028,
          4.5317,
          4.7987,
          5.0203,
          4.9643,
          5.1222,
          4.7009,
          4.9685,
          4.9263,
          4.9612,
          4.9332,
          4.7621,
          5.0842,
          5.0381,
          5.0271,
          4.5084,
          4.4008,
          4.8018,
          4.9387,
          5.516,
          4.6799,
          4.9946,
          4.9962,
          4.6987,
          4.6322,
          4.914,
          4.8262,
          4.8293,
          4.908,
          4.6267,
          4.8555,
          4.8241,
          4.3947,
          4.9559,
          5.1572,
          5.3573,
          4.6487,
          5.4941,
          5.1094,
          5.0791,
          4.8511,
          5.247,
          4.5994,
          5.0182,
          4.7657,
          5.3043,
          4.5808,
          5.1627,
          4.5433,
          5.1496,
          4.5011,
          4.7043,
          4.9832,
          4.5674,
          4.6711,
          4.97,
          4.5422,
          4.5683,
          4.6767,
          4.6216,
          4.5867,
          4.7134,
          4.8102,
          4.5466,
          4.7848,
          4.8403,
          4.9003,
          5.1016,
          5.2173,
          4.7863,
          4.8253,
          4.4901,
          4.8236,
          4.7713,
          5.0343,
          4.819,
          4.8893,
          4.974,
          4.7697,
          4.8241,
          4.6037,
          5.1323,
          4.5781,
          4.7148,
          5.1783,
          4.7984,
          4.8625,
          4.8518,
          4.6251,
          4.7094,
          5.1932,
          4.9225,
          4.87,
          4.3989,
          4.953,
          4.761,
          4.7066,
          4.8086,
          5.2542,
          4.9708,
          4.3834,
          4.6342,
          4.5016,
          4.7143,
          4.7107,
          4.8109,
          4.701,
          4.3466,
          4.5218,
          4.8147,
          4.9939,
          5.1017,
          4.8783,
          4.5758,
          5.1578,
          4.75,
          4.141,
          4.5676,
          4.7772,
          4.9309,
          4.6305,
          4.402,
          5.2525,
          4.3377,
          4.4993,
          4.9236,
          4.8872,
          4.9972,
          4.3651,
          4.35,
          4.9068,
          4.8911,
          4.9144,
          4.7216,
          4.6619,
          4.3817,
          4.912,
          4.6976,
          4.7428,
          4.5415,
          4.3896,
          4.7491,
          4.106,
          4.6549,
          4.8054,
          4.5053,
          4.2591,
          4.1645,
          4.8778,
          4.4958,
          4.662,
          4.3622,
          4.4273,
          4.7726,
          4.6693,
          4.8126,
          5.0105,
          4.6149,
          4.8117,
          4.7663,
          4.5419,
          4.2039,
          4.8161,
          4.9294,
          4.8213,
          4.681,
          4.7401,
          5.0033,
          4.6173,
          4.4975,
          4.498,
          4.7783,
          4.1392,
          4.6654,
          4.665,
          4.7066,
          5.0294,
          4.4431,
          4.9188,
          4.5024,
          4.3976,
          4.8927,
          4.5958,
          4.4858,
          4.232,
          4.6654,
          4.6267,
          4.5141,
          4.5345,
          4.4185,
          4.7094,
          4.5245,
          4.3308,
          4.4877,
          4.5149,
          4.8616,
          4.3476,
          3.967,
          4.8929,
          4.726,
          4.7063,
          4.3147,
          4.2748,
          4.4935,
          4.3682,
          4.5015,
          4.4105,
          4.3233,
          4.7544,
          4.0493,
          4.1465,
          5.0544,
          4.2509,
          4.877,
          4.3979,
          4.7587,
          4.3108,
          4.4017,
          4.4171,
          4.6216,
          4.1401,
          4.7411,
          4.5768,
          4.4917,
          4.389,
          4.0968,
          4.6657,
          4.6309,
          4.4735,
          4.7982,
          4.1527,
          4.4496,
          4.3765,
          4.6726,
          4.8929,
          4.2274,
          4.3899,
          4.0634,
          4.5652,
          4.0928,
          4.5019,
          4.4124,
          4.0343,
          4.1044,
          3.7111,
          4.2115,
          4.2252,
          4.3151,
          4.0257,
          4.7606,
          4.2611,
          4.6736,
          4.768,
          4.4868,
          4.1321,
          3.7585,
          4.548,
          4.5781,
          4.1542,
          4.4287,
          4.184,
          4.0365,
          4.4067,
          4.6311,
          4.2297,
          4.9518,
          3.9946,
          4.005,
          4.6259,
          4.1215,
          4.8192,
          4.3448,
          4.3836,
          4.2301,
          4.4034,
          4.3488,
          4.2877,
          4.1547,
          4.3569,
          4.5234,
          4.6247,
          3.9199,
          4.134,
          4.5051,
          4.6292,
          4.7861,
          3.7735,
          4.135,
          4.5735,
          4.1734,
          4.229,
          4.6952,
          4.4652,
          4.6381,
          3.9977,
          4.7989,
          4.1477,
          4.0387,
          4.4766,
          4.1494,
          3.936,
          4.0982,
          4.143,
          3.677,
          4.1665,
          3.9603,
          4.2609,
          4.6472,
          4.3702,
          4.7276,
          4.5361,
          4.5408,
          4.4803,
          4.3386,
          4.1257,
          4.4269,
          3.8381,
          4.2675,
          4.0704,
          4.2376,
          4.3714,
          3.8408,
          4.0565,
          4.5645,
          3.9462,
          4.1611,
          4.3837,
          4.4053,
          4.0177,
          4.1759,
          4.1551,
          4.2365,
          3.6188,
          4.1131,
          4.2153,
          3.9293,
          4.0402,
          4.1436,
          4.3341,
          4.2009,
          3.9512,
          4.3519,
          4.1687,
          4.3927,
          4.2151,
          3.9463,
          4.5693,
          4.067,
          4.0325,
          3.918,
          4.2278,
          3.7608,
          3.9419,
          4.5742,
          4.2729,
          4.2686,
          4.8758,
          4.3926,
          4.1316,
          4.1729,
          3.8472,
          4.5305,
          3.7657,
          3.965,
          4.1185,
          4.5305,
          3.9208,
          4.3054,
          4.5931,
          3.677,
          4.2847,
          3.9591,
          4.2674,
          4.2645,
          4.0313,
          4.0813,
          4.1604,
          4.1015,
          3.8865,
          4.3679,
          4.5131,
          3.8487,
          4.069,
          4.08,
          4.2519,
          3.6335,
          4.0731,
          3.8468,
          4.2623,
          4.1044,
          3.924,
          4.1063,
          4.0103,
          4.4915,
          3.9784,
          3.8435,
          4.5057,
          3.8726,
          3.6056,
          4.4144,
          4.1499,
          4.2489,
          4.2223,
          3.9863,
          4.1439,
          4.0315,
          3.7477,
          4.1392,
          4.1746,
          3.5354,
          3.6985,
          3.9749,
          4.0375,
          3.7861,
          3.9596,
          4.3469,
          3.8842,
          4.1604,
          3.9897,
          4.649,
          3.975,
          3.9695,
          3.7729,
          4.5569,
          4.3165,
          4.4141,
          4.2602,
          4.0151,
          3.8723,
          4.2687,
          4.1219,
          3.7988,
          4.186,
          4.1953,
          4.1339,
          4.2771,
          3.5553,
          4.3824,
          3.9289,
          4.2596,
          4.1293,
          3.0019,
          3.7767,
          4.5313,
          3.9424,
          3.8542,
          4.3805,
          3.4013,
          3.6048,
          3.5872,
          3.8313,
          3.9648,
          3.8375,
          3.7897,
          3.4938,
          3.5757,
          4.0542,
          4.0062,
          3.6633,
          3.9152,
          3.8026,
          4.1513,
          3.7201,
          4.1685,
          4.424,
          4.2729,
          3.4607,
          3.793,
          4.0254,
          3.9311,
          3.807,
          3.7509,
          4.1119,
          3.5939,
          4.3469,
          3.7697,
          4.1463,
          4.2357,
          3.6472,
          3.3531,
          3.7963,
          3.945,
          3.9196,
          4.4008,
          3.786,
          3.696,
          4.1766,
          3.9257,
          3.5189,
          4.3735,
          4.0569,
          3.4803,
          3.6313,
          4.2456,
          4.2397,
          4.4588,
          3.5684,
          4.0349,
          3.9906,
          3.8995,
          3.9843,
          3.9343,
          4.0625,
          4.0998,
          4.0617,
          3.7837,
          3.9562,
          3.5822,
          3.7273,
          3.9638,
          4.0538,
          3.9732,
          3.4838,
          4.0956,
          3.9773,
          4.5014,
          3.1683,
          3.7712,
          3.8391,
          3.7495,
          3.5561,
          4.1495,
          3.6667,
          3.4012,
          3.9638,
          3.6875,
          3.6987,
          3.6311,
          3.8162,
          3.6339,
          3.7077,
          3.5459,
          3.6127,
          3.7726,
          4.2346,
          3.6042,
          3.8336,
          3.4328,
          3.6811,
          3.6363,
          3.9673,
          3.693,
          3.8361,
          3.608,
          3.9615,
          3.781,
          3.4997,
          4.0058,
          3.5791,
          3.7768,
          3.8038,
          3.7431,
          3.5133,
          3.8668,
          4.2515,
          4.0734,
          3.8971,
          3.6052,
          4.2825,
          3.3796,
          3.5494,
          4.2119,
          3.8601,
          3.3853,
          3.4713,
          3.6964,
          3.6194,
          3.9698,
          3.8758,
          3.7958,
          3.5438,
          4.2904,
          3.5211,
          3.1508,
          3.7549,
          3.6625,
          3.7924,
          3.7219,
          3.8674,
          4.1806,
          3.4727,
          3.8348,
          3.6719,
          3.7944,
          3.6259,
          4.2455,
          3.6353,
          3.4003,
          4.3325,
          3.6143,
          3.4399,
          3.1537,
          3.4274,
          3.5233,
          4.2124,
          3.7362,
          3.1214,
          3.4479,
          3.8191,
          4.0623,
          3.6584,
          3.8012,
          3.0604,
          3.1473,
          3.5097,
          4.1332,
          4.0044,
          3.6504,
          3.7209,
          3.2448,
          3.7251,
          3.7561,
          3.5157,
          3.7117,
          3.9655,
          4.3578,
          3.47,
          3.9747,
          3.3324,
          3.9725,
          3.6054,
          3.4473,
          3.5479,
          3.2517,
          3.4352,
          3.0771,
          3.9006,
          3.704,
          3.541,
          3.3563,
          3.2267,
          4.2942,
          3.4372,
          3.3275,
          3.0324,
          3.8017,
          3.6032,
          3.5763,
          3.7002,
          3.8042,
          3.4619,
          3.3434,
          3.9797,
          3.1357,
          3.6756,
          3.4919,
          3.0518,
          3.9536,
          3.332,
          3.3463,
          3.127,
          3.5795,
          3.3677,
          3.363,
          3.5376,
          3.9481,
          3.3388,
          3.5397,
          3.5782,
          3.6438,
          3.6819,
          3.5136,
          3.185,
          3.4636,
          3.5517,
          3.4753,
          3.3432,
          3.3944,
          3.2731,
          3.2459,
          3.605,
          3.6502,
          3.2971,
          3.657,
          3.3184,
          4.059,
          3.2278,
          3.5945,
          3.8611,
          3.144,
          3.7367,
          3.3963,
          3.5303,
          3.8394,
          3.4503,
          3.3966,
          3.8813,
          3.491,
          3.8437,
          3.263,
          3.501,
          3.6903,
          3.4962,
          3.761,
          3.4894,
          3.0732,
          3.2839,
          3.2481,
          3.2524,
          3.5664,
          3.5567,
          2.84,
          3.5148,
          3.2729,
          3.162,
          3.2715,
          3.0426,
          3.8762,
          3.619,
          3.9013,
          3.5914,
          3.3919,
          3.2961,
          3.7038,
          3.3132,
          3.5096,
          3.3552,
          3.3969,
          3.4016,
          3.5932,
          3.6518,
          3.2451,
          3.2571,
          3.3243,
          3.2245,
          3.3235,
          3.5457,
          3.4508,
          3.5594,
          3.4282,
          3.0939,
          3.1632,
          3.2165,
          3.5439,
          3.2855,
          3.3408,
          3.5766,
          3.1304,
          3.0989,
          3.6268,
          3.3574,
          3.472,
          3.3025,
          3.6114,
          3.3664,
          3.5559,
          3.4733,
          3.0431,
          3.1377,
          3.3247,
          3.5141,
          3.1447,
          3.1233,
          3.6148,
          2.8652,
          2.8845,
          3.0873,
          3.2794,
          3.1804,
          3.1535,
          3.3455,
          3.9787,
          3.3184,
          3.0623,
          3.512,
          3.1869,
          3.6755,
          3.0947,
          3.1611,
          2.9686,
          3.4058,
          3.5243,
          3.339,
          3.0437,
          2.6985,
          3.0838,
          3.2547,
          3.0803,
          3.3162,
          3.1761,
          3.2168,
          3.0957,
          2.953,
          3.1117,
          3.1108,
          2.9271,
          3.1861,
          3.3788,
          2.7406,
          2.839,
          3.2122,
          3.2529,
          3.1597,
          3.0956,
          2.9928,
          3.1839,
          3.5738,
          2.846,
          3.1269,
          2.9303,
          3.492,
          3.0656,
          3.052,
          3.1508,
          2.9313,
          3.1449,
          3.0485,
          3.2007,
          2.9015,
          3.225,
          3.4064,
          3.0652,
          3.2257,
          3.2102,
          2.8204,
          2.8176,
          3.2053,
          3.0539,
          3.2852,
          3.1147,
          3.4321,
          3.15,
          3.3718,
          3.0721,
          3.1552,
          2.9685,
          3.0225,
          3.2786,
          3.2561,
          3.301,
          3.2131,
          3.0885,
          3.1208,
          3.0995,
          3.1288,
          3.1449,
          3.0451,
          3.3863,
          2.8834,
          3.048,
          3.1081,
          2.9059,
          2.8994,
          3.3271,
          2.8346,
          3.4911,
          3.3434,
          3.4,
          3.0868,
          3.1079,
          3.1899,
          3.1599,
          3.3757,
          3.3228,
          2.7751,
          3.133,
          3.4066,
          3.1829,
          3.1149,
          2.8064,
          3.1315,
          3.4283,
          2.8663,
          3.2555,
          3.1807,
          3.2585,
          3.1475,
          3.2366,
          3.2347,
          3.1548,
          3.2712,
          3.1101,
          2.9089,
          3.0099,
          3.0883,
          3.2767,
          2.7635,
          2.9699,
          2.6794,
          2.8375,
          3.0545,
          3.0365,
          3.2781,
          3.2661,
          2.849,
          2.9204,
          2.8016,
          3.106,
          2.9101,
          3.1236,
          2.844,
          2.7687,
          2.9479,
          3.0519,
          3.192,
          2.8254,
          3.2395,
          3.0381,
          2.8455,
          3.4745,
          3.0449,
          3.2429,
          3.0498,
          3.3311,
          3.0707,
          2.8544,
          3.2804,
          3.002,
          2.9489,
          2.8151,
          3.3708,
          3.0026,
          2.3967,
          3.0633,
          3.2101,
          2.8515,
          2.9014,
          3.484,
          2.6517,
          2.8348,
          3.0613,
          3.1534,
          2.8096,
          2.8347,
          2.7019,
          2.9162,
          2.8334,
          2.9397,
          3.0134,
          2.6581,
          3.2366,
          3.5405,
          2.975,
          3.1169,
          2.794,
          3.0746,
          3.2101,
          3.2873,
          2.6986,
          2.9948,
          3.2943,
          2.4891,
          2.7809,
          2.9584,
          2.4499,
          3.2852,
          2.7021,
          3.1839,
          3.1395,
          2.7805,
          2.674,
          3.026,
          3.2184,
          3.1204,
          2.7549,
          3.1006,
          2.9822,
          3.0561,
          2.8431,
          2.909,
          2.7112,
          2.9699,
          3.0339,
          3.4204,
          2.7608,
          3.158,
          2.8807,
          2.982,
          2.8594,
          2.9543,
          2.9571,
          2.9876,
          2.8539,
          2.9,
          2.9626,
          2.6507,
          3.1705,
          2.6204,
          2.7701,
          2.7807,
          3.0468,
          2.8069,
          3.0767,
          2.8276,
          2.9973,
          2.5638,
          2.7384,
          2.8411,
          2.7935,
          2.8883,
          2.8812,
          2.802,
          2.8472,
          2.7193,
          2.9312,
          2.6932,
          2.7987,
          2.6322,
          2.7158,
          3.0224,
          2.9283,
          2.8085,
          2.8666,
          3.0175,
          2.82,
          2.788,
          2.7529,
          2.6556,
          2.7485,
          2.8445,
          2.716,
          2.7945,
          2.7596,
          2.6326,
          2.7874,
          2.5593,
          2.7022,
          2.6608,
          3.2142,
          2.7464,
          3.0653,
          2.6774,
          2.9682,
          2.6605,
          2.9075,
          2.5921,
          2.7351,
          3.0434,
          2.6004,
          2.7856,
          2.7636,
          2.5483,
          2.626,
          2.5144,
          3.0608,
          2.8652,
          3.0183,
          2.6507,
          2.8864,
          2.5563,
          3.1256,
          2.4546,
          2.7192,
          2.5359,
          2.7803,
          2.6617,
          2.6923,
          2.6207,
          2.7407,
          2.6501,
          2.6996,
          2.7372,
          2.7608,
          2.9148,
          2.6884,
          2.7476,
          2.7603,
          2.9477,
          2.9014,
          3.116,
          2.3298,
          3.0126,
          2.6876,
          2.497,
          2.8242,
          3.0904,
          2.6327,
          2.7937,
          3.1854,
          2.7616,
          2.9318,
          3.0264,
          2.8408,
          2.5789,
          2.1624,
          2.04,
          1.818,
          1.8546,
          2.6525,
          2.2481,
          2.3086,
          2.7769,
          2.8201,
          2.238,
          2.5946,
          2.6372,
          2.8616,
          2.6237,
          2.6732,
          2.2838,
          2.6343,
          2.7814,
          2.6738,
          2.6897,
          2.429,
          2.7162,
          2.7717,
          2.9759,
          2.4694,
          2.6172,
          2.6945,
          2.6546,
          2.3592,
          2.5329,
          2.5521,
          2.1842,
          2.6241,
          2.4937,
          2.5566,
          2.5637,
          2.6951,
          2.5865,
          2.8958,
          2.582,
          2.6733,
          2.6178,
          2.794,
          2.6769,
          2.5972,
          2.7607,
          2.4275,
          2.4225,
          2.8911,
          2.5961,
          2.7547,
          3.0084,
          2.6543,
          2.8933,
          2.8661,
          2.4916,
          2.707,
          2.4978,
          2.5451,
          2.6605,
          2.3913,
          2.7204,
          2.3168,
          2.4356,
          2.5163,
          2.6371,
          2.651,
          2.6898,
          2.7076,
          2.3868,
          2.5621,
          2.6915,
          2.4803,
          2.8499,
          2.7057,
          2.7648,
          2.4194,
          2.6218,
          2.6383,
          2.5428,
          2.3966,
          2.5081,
          2.7652,
          2.4334,
          2.6513,
          2.5006,
          2.321,
          2.4283,
          2.5183,
          2.7459,
          2.3629,
          2.7517,
          2.6244,
          2.5205,
          2.7907,
          2.5382,
          2.3312,
          2.1581,
          2.4648,
          2.9146,
          2.5309,
          2.5362,
          2.3294,
          2.3288,
          2.3169,
          2.5365,
          2.6722,
          2.2411,
          2.628,
          2.4687,
          2.4136,
          2.1048,
          2.3319,
          2.7678,
          2.5484,
          2.5836,
          2.5618,
          2.3325,
          2.368,
          2.4472,
          2.1903,
          2.3984,
          2.2641,
          2.6168,
          2.6777,
          2.4842,
          2.3406,
          2.6056,
          2.1853,
          2.4523,
          2.2471,
          2.3685,
          2.4915,
          2.4241,
          2.4721,
          2.2382,
          2.3764,
          2.3321,
          2.3344,
          2.5024,
          2.2797,
          2.3359,
          2.5157,
          2.2881,
          2.4674,
          2.7183,
          2.1793,
          2.4069,
          2.5571,
          2.5471,
          2.517,
          2.4356,
          2.6336,
          2.1815,
          2.5228,
          2.0913,
          2.1644,
          1.9043,
          2.2098,
          2.4626,
          2.5438,
          2.6078,
          2.4926,
          2.5445,
          2.2823,
          2.2018,
          2.3228,
          2.6442,
          2.1593,
          2.0648,
          2.354,
          2.0664,
          2.3797,
          2.4149,
          2.19,
          2.2233,
          2.0559,
          2.2647,
          1.8611,
          1.9603,
          2.5621,
          2.0614,
          2.3686,
          2.3154,
          2.1175,
          2.0454,
          2.3443,
          2.0982,
          2.3602,
          2.1646,
          2.5119,
          2.1735,
          2.44,
          2.3878,
          2.3532,
          2.1586,
          2.001,
          2.33,
          2.3235,
          2.1342,
          2.1861,
          2.2556,
          2.1647,
          2.0235,
          2.0355,
          2.2263,
          2.3311,
          2.0493,
          2.1194,
          2.3482,
          2.2911,
          2.4155,
          2.4329,
          2.267,
          2.4445,
          2.399,
          2.4301,
          2.3322,
          1.9115,
          2.3508,
          2.4136,
          2.4613,
          1.9765,
          2.2918,
          1.9939,
          2.4234,
          2.1797,
          1.732,
          2.0547,
          2.2537,
          2.0275,
          2.4577,
          2.5956,
          2.0091,
          2.3524,
          2.3931,
          2.4072,
          1.9067,
          2.0524,
          2.2628,
          2.1824,
          2.3302,
          2.2981,
          2.3155,
          2.0491,
          2.6242,
          2.1447,
          2.1908,
          2.2692,
          2.0414,
          1.9506,
          2.1204,
          2.4466,
          2.0384,
          2.2915,
          2.0134,
          2.2175,
          1.9895,
          2.2943,
          2.0657,
          2.0092,
          2.1647,
          2.3508,
          2.1743,
          1.8241,
          2.2303,
          2.0975,
          2.2645,
          2.0463,
          2.0526,
          1.9935,
          1.8475,
          2.2004,
          2.1259,
          2.2476,
          1.9681,
          2.1132,
          2.0266,
          2.1327,
          2.0246,
          2.3285,
          1.5565,
          2.1719,
          2.435,
          2.013,
          2.3569,
          1.8883,
          2.1667,
          1.9462,
          2.111,
          1.9034,
          2.1297,
          2.0976,
          2.2651,
          1.9396,
          1.9937,
          2.0139,
          1.9554,
          2.1722,
          2.2866,
          1.9368,
          1.9112,
          2.0223,
          2.1616,
          2.0976,
          2.2348,
          1.854,
          2.4496,
          1.9425,
          2.2943,
          2.072,
          2.0634,
          1.9175,
          2.16,
          1.8603,
          1.9614,
          2.0293,
          2.149,
          1.9537,
          1.7433,
          1.7993,
          1.9024,
          2.2297,
          1.9553,
          1.7253,
          2.1148,
          2.2995,
          1.9812,
          1.9516,
          2.1153,
          1.9218,
          1.8999,
          1.9922,
          1.8275,
          2.087,
          2.0693,
          1.947,
          2.1709,
          1.8822,
          1.9531,
          1.9388,
          1.9876,
          2.0152,
          1.6845,
          2.0128,
          1.9967,
          1.9602,
          1.8747,
          1.8503,
          1.9568,
          1.9711,
          1.7544,
          2.108,
          1.6711,
          1.797,
          1.9219,
          1.8478,
          2.0302,
          1.812,
          1.9449,
          2.2149,
          1.7216,
          2.0898,
          2.0561,
          2.0026,
          1.9601,
          1.8436,
          2.0666,
          1.8937,
          2.1555,
          1.6604,
          1.843,
          2.3024,
          1.7665,
          1.8518,
          1.9088,
          1.6965,
          1.7143,
          1.9593,
          1.8335,
          1.7855,
          2.088,
          1.8919,
          2.1286,
          1.9334,
          1.9187,
          1.9079,
          1.8484,
          1.7467,
          1.6812,
          1.7257,
          1.9778,
          1.7493,
          2.0482,
          1.7249,
          1.9009,
          1.8703,
          1.6905,
          1.949,
          1.8148,
          2.0658,
          1.7156,
          1.8745,
          1.9732,
          2.025,
          1.8888,
          1.6372,
          1.7443,
          1.7541,
          1.6237,
          1.9526,
          1.8303,
          2.091,
          1.81,
          1.7376,
          1.9757,
          1.7543,
          1.7596,
          1.8632,
          1.9671,
          1.8124,
          1.764,
          1.6331,
          1.6094,
          1.7315,
          1.8057,
          1.9636,
          1.6907,
          1.7547,
          1.8087,
          1.8506,
          1.6093,
          1.4865,
          1.4284,
          1.7778,
          1.5933,
          1.6319,
          1.8301,
          1.7501,
          1.5729,
          1.6524,
          1.8009,
          1.8598,
          1.5616,
          1.8589,
          1.5066,
          1.6822,
          1.4137,
          1.935,
          2.0032,
          1.7918,
          1.845,
          1.937,
          1.6308,
          1.5799,
          1.9793,
          1.6396,
          1.6208,
          1.7093,
          1.6308,
          1.7266,
          1.7256,
          1.7304,
          1.6012,
          1.843,
          1.6657,
          1.7025,
          1.7156,
          1.5905,
          1.7724,
          1.8481,
          1.6925,
          1.7685,
          1.6792,
          1.6394,
          1.8762,
          1.7142,
          1.9718,
          1.9087,
          1.8061,
          1.5994,
          2.0132,
          1.7092,
          1.7413,
          1.7926,
          1.6744,
          1.6576,
          1.5529,
          1.316,
          1.5784,
          1.5596,
          1.7444,
          1.4315,
          1.6177,
          1.4701,
          1.6036,
          1.5046,
          1.5175,
          1.3998,
          1.5073,
          1.7157,
          1.5753,
          1.4253,
          1.6147,
          1.9426,
          1.5522,
          1.5476,
          1.3497,
          1.4911,
          1.9287,
          1.6659,
          1.6615,
          1.6098,
          1.6278,
          1.3975,
          1.6764,
          1.6463,
          1.4042,
          1.5601,
          1.756,
          1.5773,
          1.3942,
          1.6446,
          1.6686,
          1.6238,
          1.4076,
          1.6346,
          1.2473,
          1.604,
          1.4108,
          1.0726,
          1.751,
          1.6516,
          1.3589,
          1.4302,
          1.3691,
          1.4848,
          1.0106,
          1.6551,
          1.3704,
          1.3141,
          1.1681,
          1.1109,
          1.7762,
          1.1244,
          1.5356,
          1.6955,
          1.3791,
          1.305,
          1.3398,
          1.775,
          1.4962,
          1.4923,
          1.4949,
          1.5737,
          1.137,
          1.6093,
          1.3406,
          1.4654,
          1.209,
          1.6119,
          1.3766,
          1.549,
          1.3855,
          1.1498,
          1.6107,
          1.588,
          1.5397,
          1.2542,
          1.2687,
          1.5218,
          1.4797,
          1.2785,
          1.5442,
          1.435,
          1.2103,
          1.4552,
          1.4443,
          1.4732,
          1.178,
          1.664,
          1.539,
          1.4189,
          1.5201,
          1.4025,
          1.5064,
          1.6125,
          1.3355,
          1.3293,
          1.3537,
          1.1983,
          1.296,
          1.3241,
          1.4777,
          1.3988,
          1.6635,
          1.3583,
          1.3844,
          1.3905,
          1.4578,
          1.5173,
          1.359,
          1.2965,
          1.4636,
          1.5267,
          1.3553,
          1.4229,
          1.5322,
          1.4234,
          1.3473,
          1.2598,
          1.1522,
          1.2511,
          1.5418,
          1.7001,
          1.5431,
          1.376,
          1.3221,
          1.3208,
          1.3796,
          1.4818,
          1.334,
          1.4502,
          1.3672,
          1.3869,
          1.5818,
          1.3089,
          1.3159,
          1.5756,
          1.3435,
          1.4121,
          1.2734,
          1.4082,
          1.3671,
          1.4453,
          1.4641,
          1.4115,
          1.3347,
          1.332,
          1.3625,
          1.3021,
          1.4344,
          1.4058,
          1.4017,
          1.3465,
          1.2446,
          1.3099,
          1.3916,
          1.3875,
          1.5354,
          1.4743,
          1.2701,
          1.3741,
          1.3169,
          1.321,
          1.3033,
          1.5497,
          1.451,
          1.6427,
          1.3659,
          1.499,
          1.514,
          1.4943,
          1.6024,
          1.4335,
          1.3897,
          1.3615,
          1.3042,
          1.1215,
          1.5559,
          1.1987,
          1.2797,
          1.4511,
          1.1477,
          1.4524,
          1.3563,
          1.3415,
          1.1747,
          1.4198,
          1.2716,
          1.4671,
          1.0256,
          1.4197,
          1.3812,
          1.3852,
          1.5304,
          1.6903,
          1.5865,
          1.3423,
          1.3698,
          1.3907,
          1.5594,
          1.3291,
          1.5895,
          1.4462,
          1.3214,
          1.6376,
          1.4327,
          1.4835,
          1.4836,
          1.5838,
          1.4752,
          1.4372,
          1.4357,
          1.3331,
          1.5138,
          1.664,
          1.442,
          1.5508,
          1.6502,
          1.4731,
          1.2942,
          1.6084,
          1.5918,
          1.696,
          1.4667,
          1.5311,
          1.623,
          1.6361,
          1.6523,
          1.3229,
          1.4637,
          1.322,
          1.5489,
          1.6976,
          1.6082,
          1.7375,
          1.6151,
          1.7529,
          1.7216,
          1.744,
          1.6671,
          1.767,
          1.5903,
          1.6492,
          1.4705,
          1.6458,
          1.5761,
          1.6514,
          1.8426,
          1.6662,
          1.8674,
          1.7236,
          1.4906,
          1.758,
          1.6182,
          2.0547,
          1.5178,
          1.6864,
          1.6732,
          1.8666,
          1.7723,
          1.5925,
          1.8169,
          1.9189,
          1.866,
          1.8643,
          1.8848,
          1.7865,
          1.7527,
          2.0865,
          1.8875,
          1.897,
          1.9834,
          1.8359,
          1.8304,
          1.93,
          1.9024,
          1.9803,
          2.2051,
          1.9505,
          1.931,
          1.9586,
          2.0214,
          1.8284,
          2.1512,
          1.9634,
          1.7959,
          2.3317,
          2.096,
          1.9859,
          2.0531,
          2.2006,
          2.0425,
          2.1551,
          2.204,
          2.0916,
          2.1382,
          2.1338,
          1.828,
          2.0913,
          2.2405,
          2.2515,
          2.1399,
          2.1739,
          2.3177,
          2.2786,
          2.4199,
          2.2319,
          2.4423,
          2.3584,
          2.8828,
          2.5568,
          2.521,
          2.7726,
          2.6536,
          2.6095,
          2.5095,
          2.6984,
          2.7221,
          2.8597,
          2.7146,
          3.0059,
          2.7112,
          3.1695,
          2.9877,
          2.985,
          3.2168,
          3.1154,
          3.2897,
          3.4793,
          3.4033,
          3.405,
          3.3012,
          3.4491,
          3.4846,
          3.576,
          3.7915,
          3.7221,
          3.6648,
          3.8567,
          4.0506,
          3.9365,
          4.0522,
          4.1108,
          4.0666,
          4.3338,
          4.3352,
          4.3728,
          4.5306,
          4.662,
          4.754,
          5.0987,
          5.0549,
          5.1761,
          5.3808,
          5.2851,
          5.4568,
          5.6081,
          5.7975,
          5.7632,
          5.8871,
          5.8276,
          6.2208,
          6.3929,
          6.5133,
          6.4982,
          6.7944,
          6.8501,
          7.1498,
          7.1904,
          7.3866,
          7.527,
          7.7898,
          8.2126,
          8.2225,
          8.3071,
          8.5029,
          8.8253,
          8.8362,
          9.0325,
          8.9609,
          9.4075,
          9.8025,
          9.786,
          9.8154,
          10.057,
          10.151,
          10.276,
          10.23,
          10.522,
          10.623,
          10.597,
          10.767,
          10.645,
          10.709,
          10.819,
          10.78,
          10.712,
          10.941,
          10.937,
          10.653,
          10.631,
          10.525,
          10.333,
          10.279,
          10.099,
          10.046,
          9.8737,
          9.7618,
          9.5088,
          9.3796,
          9.2343,
          8.9746,
          8.8623,
          8.7276,
          8.6041,
          8.4399,
          8.2359,
          7.9043,
          7.8265,
          7.5118,
          7.5865,
          7.2807,
          7.002,
          6.9204,
          6.7511,
          6.5676,
          6.4553,
          6.3155,
          6.1152,
          6.0784,
          6.0109,
          5.7972,
          5.5563,
          5.4421,
          5.3177,
          5.281,
          5.1124,
          4.999,
          4.8247,
          4.7998,
          4.7028,
          4.6753,
          4.5159,
          4.3535,
          4.4561,
          4.2406,
          4.1695,
          4.1221,
          4.0602,
          4.0387,
          3.9009,
          3.7946,
          3.7823,
          3.6187,
          3.5142,
          3.4356,
          3.4491,
          3.4289,
          3.3889,
          3.2886,
          3.1643,
          3.0625,
          3.0777,
          3.0765,
          2.9619,
          2.9265,
          2.9257,
          3.0428,
          2.907,
          2.7507,
          2.739,
          2.6329,
          2.7846,
          2.5689,
          2.7871,
          2.5687,
          2.4812,
          2.5545,
          2.6404,
          2.5733,
          2.5981,
          2.4912,
          2.5947,
          2.2247,
          2.2723,
          2.3392,
          2.2,
          2.2556,
          2.0898,
          2.1142,
          2.0655,
          2.1607,
          2.1131,
          2.1306,
          2.026,
          1.9557,
          1.9088,
          1.9753,
          2.0262,
          1.901,
          1.8859,
          1.9493,
          1.8451,
          1.8398,
          1.8652,
          1.8653,
          1.8142,
          1.8848,
          1.8302,
          1.7337,
          1.7093,
          1.7251,
          1.808,
          1.7207,
          1.7873,
          1.7439,
          1.6577,
          1.7643,
          1.7427,
          1.6639,
          1.644,
          1.6897,
          1.6505,
          1.6632,
          1.6193,
          1.6877,
          1.5238,
          1.6,
          1.5921,
          1.5697,
          1.5368,
          1.5994,
          1.5969,
          1.4316,
          1.4547,
          1.4276,
          1.4806,
          1.4411,
          1.5707,
          1.4864,
          1.4433,
          1.4429,
          1.4696,
          1.4261,
          1.4983,
          1.409,
          1.4018,
          1.4958,
          1.5049,
          1.4144,
          1.3743,
          1.4141,
          1.4297,
          1.3836,
          1.3118,
          1.3395,
          1.4291,
          1.291,
          1.3062,
          1.3629,
          1.3222,
          1.3956,
          1.3331,
          1.2805,
          1.3496,
          1.2909,
          1.3535,
          1.3341,
          1.2892,
          1.2876,
          1.3071,
          1.2975,
          1.3282,
          1.313,
          1.3362,
          1.37,
          1.2079,
          1.2395,
          1.214,
          1.2932,
          1.259,
          1.2489,
          1.214,
          1.2357,
          1.2147,
          1.2723,
          1.2613,
          1.2332,
          1.2834,
          1.2207,
          1.1936,
          1.2356,
          1.1907,
          1.1631,
          1.1738,
          1.2795,
          1.2004,
          1.2368,
          1.3223,
          1.2656,
          1.1567,
          1.2365,
          1.1394,
          1.1893,
          1.2968,
          1.1528,
          1.2437,
          1.1986,
          1.2753,
          1.2103,
          1.1959,
          1.1735,
          1.2492,
          1.302,
          1.2281,
          1.2908,
          1.1825,
          1.25,
          1.2991,
          1.2897,
          1.3479,
          1.2777,
          1.3191,
          1.3713,
          1.312,
          1.3681,
          1.3596,
          1.3626,
          1.3308,
          1.4706,
          1.3913,
          1.4535,
          1.4137,
          1.4043,
          1.4495,
          1.465,
          1.4894,
          1.5099,
          1.5096,
          1.5442,
          1.5977,
          1.5766,
          1.6343,
          1.644,
          1.547,
          1.7568,
          1.6467,
          1.7612,
          1.7424,
          1.7613,
          1.7306,
          1.7742,
          1.9128,
          1.8776,
          1.9311,
          1.9103,
          1.9387,
          2.0937,
          2.0507,
          2.0718,
          2.0613,
          2.0934,
          2.1432,
          2.1469,
          2.0935,
          2.1176,
          2.1134,
          2.1527,
          2.0744,
          2.1567,
          2.1237,
          2.1198,
          2.1284,
          2.086,
          2.1507,
          2.2004,
          2.1219,
          2.0465,
          2.1648,
          2.0946,
          1.9886,
          2.067,
          1.9493,
          2.034,
          1.8796,
          2.0257,
          1.8343,
          1.9337,
          1.8466,
          1.8634,
          1.7607,
          2.1039,
          2.0925,
          1.8015,
          1.8979,
          1.8577,
          1.4043,
          1.7682,
          1.5589,
          1.6779,
          1.6172,
          1.2862,
          1.0527,
          1.7289,
          2.5428,
          1.3278,
          1.3698,
          1.0121,
          0.7936,
          1.8831,
          1.261,
          2.3997,
          1.2826,
          1.5553,
          1.3162,
          2.1017,
          2.5444,
          1.6537,
          0.3793,
          1.1405,
          1.151,
          1.5068,
          0.9634,
          0.8873,
          1.6789,
          0.5953,
          0.6998,
          1.4881,
          1.7614,
          0.9499,
          2.1325
        ],
        [
          0.2848,
          0.2702,
          0.2777,
          0.2761,
          0.2708,
          0.2621,
          0.2664,
          0.2629,
          0.2592,
          0.2641,
          0.258,
          0.2549,
          0.255,
          0.2525,
          0.2505,
          0.2525,
          0.2474,
          0.2479,
          0.2433,
          0.2438,
          0.2407,
          0.2417,
          0.2351,
          0.2338,
          0.2447,
          0.2369,
          0.2336,
          0.236,
          0.2329,
          0.2354,
          0.2338,
          0.2337,
          0.2292,
          0.2306,
          0.2315,
          0.2313,
          0.234,
          0.2286,
          0.2357,
          0.2347,
          0.2306,
          0.2306,
          0.2273,
          0.2335,
          0.2307,
          0.2317,
          0.2379,
          0.2336,
          0.2389,
          0.2394,
          0.2398,
          0.2468,
          0.2465,
          0.2488,
          0.243,
          0.2402,
          0.2447,
          0.2447,
          0.2442,
          0.2485,
          0.245,
          0.2376,
          0.2396,
          0.2419,
          0.2405,
          0.2382,
          0.2378,
          0.235,
          0.2352,
          0.2261,
          0.2298,
          0.2181,
          0.2258,
          0.2198,
          0.2204,
          0.2161,
          0.2167,
          0.2212,
          0.214,
          0.2156,
          0.2131,
          0.2109,
          0.2181,
          0.2127,
          0.2127,
          0.2097,
          0.2062,
          0.2088,
          0.2132,
          0.2152,
          0.2096,
          0.2073,
          0.2055,
          0.2054,
          0.21,
          0.2091,
          0.2082,
          0.2087,
          0.2087,
          0.2054,
          0.2034,
          0.2009,
          0.2068,
          0.2058,
          0.207,
          0.21,
          0.2053,
          0.2066,
          0.2013,
          0.2094,
          0.2069,
          0.2066,
          0.2063,
          0.2055,
          0.2054,
          0.2041,
          0.2018,
          0.1988,
          0.2058,
          0.2109,
          0.2056,
          0.2045,
          0.207,
          0.2067,
          0.2047,
          0.2065,
          0.2031,
          0.2013,
          0.2017,
          0.2096,
          0.2089,
          0.2079,
          0.2064,
          0.2088,
          0.2038,
          0.2059,
          0.2063,
          0.2024,
          0.2043,
          0.2025,
          0.2111,
          0.2111,
          0.212,
          0.2098,
          0.2099,
          0.2074,
          0.2106,
          0.2082,
          0.208,
          0.2055,
          0.2097,
          0.2042,
          0.2065,
          0.2054,
          0.2194,
          0.2134,
          0.2147,
          0.2162,
          0.2136,
          0.2166,
          0.2145,
          0.2097,
          0.2122,
          0.209,
          0.2104,
          0.2126,
          0.2117,
          0.2119,
          0.2084,
          0.2232,
          0.2219,
          0.2217,
          0.2227,
          0.2189,
          0.2207,
          0.2154,
          0.2224,
          0.2147,
          0.2204,
          0.2191,
          0.2163,
          0.2182,
          0.2168,
          0.2139,
          0.2169,
          0.217,
          0.2122,
          0.2167,
          0.2299,
          0.2246,
          0.2275,
          0.2238,
          0.226,
          0.2238,
          0.2264,
          0.2269,
          0.2307,
          0.2246,
          0.2232,
          0.2265,
          0.2248,
          0.2258,
          0.2251,
          0.2236,
          0.2239,
          0.2219,
          0.2187,
          0.2222,
          0.221,
          0.2225,
          0.2233,
          0.2199,
          0.239,
          0.2374,
          0.2345,
          0.2321,
          0.238,
          0.2353,
          0.2345,
          0.2321,
          0.2362,
          0.2347,
          0.2317,
          0.2312,
          0.2351,
          0.233,
          0.2329,
          0.2336,
          0.2295,
          0.2343,
          0.2318,
          0.2339,
          0.2297,
          0.2293,
          0.232,
          0.2318,
          0.233,
          0.2314,
          0.2342,
          0.2314,
          0.2303,
          0.2439,
          0.2427,
          0.2467,
          0.2453,
          0.2484,
          0.2457,
          0.2451,
          0.2473,
          0.2467,
          0.2462,
          0.2439,
          0.2444,
          0.2388,
          0.2416,
          0.2438,
          0.2443,
          0.2426,
          0.2392,
          0.2406,
          0.2417,
          0.2448,
          0.2359,
          0.2317,
          0.2375,
          0.2401,
          0.2372,
          0.2365,
          0.2372,
          0.2417,
          0.2388,
          0.2335,
          0.2332,
          0.2312,
          0.2379,
          0.2356,
          0.2363,
          0.2297,
          0.2296,
          0.2512,
          0.2546,
          0.2518,
          0.2534,
          0.2505,
          0.2502,
          0.2438,
          0.2458,
          0.2442,
          0.2462,
          0.2465,
          0.2464,
          0.2415,
          0.2414,
          0.2418,
          0.2429,
          0.2424,
          0.2378,
          0.2429,
          0.2403,
          0.236,
          0.2391,
          0.2327,
          0.237,
          0.2368,
          0.2348,
          0.2399,
          0.2375,
          0.2337,
          0.234,
          0.2335,
          0.2291,
          0.2332,
          0.2297,
          0.2289,
          0.2296,
          0.2286,
          0.2279,
          0.2261,
          0.2276,
          0.2267,
          0.2272,
          0.2256,
          0.2274,
          0.2212,
          0.2212,
          0.2213,
          0.2231,
          0.2201,
          0.2227,
          0.2206,
          0.2228,
          0.2473,
          0.2434,
          0.2452,
          0.2453,
          0.2444,
          0.2402,
          0.2428,
          0.2387,
          0.2422,
          0.2409,
          0.2384,
          0.2403,
          0.2435,
          0.2403,
          0.2386,
          0.2365,
          0.2391,
          0.2355,
          0.2357,
          0.2367,
          0.2373,
          0.2377,
          0.2333,
          0.2299,
          0.2339,
          0.2351,
          0.2314,
          0.2316,
          0.2332,
          0.2307,
          0.2291,
          0.2325,
          0.2317,
          0.2316,
          0.2294,
          0.2284,
          0.2289,
          0.2273,
          0.2266,
          0.223,
          0.2266,
          0.2238,
          0.2232,
          0.2216,
          0.2235,
          0.2241,
          0.2237,
          0.2221,
          0.2201,
          0.22,
          0.2216,
          0.2219,
          0.2241,
          0.2237,
          0.2215,
          0.2203,
          0.2184,
          0.2179,
          0.2186,
          0.2208,
          0.2189,
          0.22,
          0.2195,
          0.2144,
          0.2163,
          0.2158,
          0.2165,
          0.2143,
          0.2152,
          0.2149,
          0.2099,
          0.2099,
          0.2131,
          0.2105,
          0.2109,
          0.2087,
          0.2105,
          0.2428,
          0.2456,
          0.2369,
          0.2393,
          0.2437,
          0.2441,
          0.2453,
          0.2407,
          0.2432,
          0.2414,
          0.24,
          0.2414,
          0.2405,
          0.2395,
          0.2355,
          0.2379,
          0.2362,
          0.2376,
          0.235,
          0.2377,
          0.2389,
          0.2372,
          0.2362,
          0.2317,
          0.2382,
          0.2349,
          0.2379,
          0.2378,
          0.237,
          0.2363,
          0.2321,
          0.2366,
          0.232,
          0.2335,
          0.2295,
          0.2308,
          0.2311,
          0.2317,
          0.2305,
          0.2301,
          0.2292,
          0.2312,
          0.2324,
          0.2303,
          0.2279,
          0.2309,
          0.2272,
          0.2265,
          0.2286,
          0.2277,
          0.2266,
          0.2291,
          0.2276,
          0.2312,
          0.2286,
          0.2249,
          0.2249,
          0.2267,
          0.2262,
          0.2287,
          0.2268,
          0.2285,
          0.2268,
          0.2268,
          0.2258,
          0.2252,
          0.2262,
          0.2231,
          0.222,
          0.222,
          0.2233,
          0.2233,
          0.2218,
          0.2239,
          0.2223,
          0.2206,
          0.2185,
          0.2177,
          0.2178,
          0.22,
          0.2219,
          0.2212,
          0.2187,
          0.2193,
          0.2187,
          0.2174,
          0.2203,
          0.2178,
          0.2173,
          0.2178,
          0.2205,
          0.2176,
          0.216,
          0.2162,
          0.2177,
          0.2162,
          0.2165,
          0.2173,
          0.213,
          0.2179,
          0.2162,
          0.2164,
          0.2182,
          0.2167,
          0.2143,
          0.2157,
          0.2132,
          0.2144,
          0.2139,
          0.2145,
          0.2135,
          0.2155,
          0.2103,
          0.2138,
          0.2128,
          0.2126,
          0.2117,
          0.2129,
          0.2129,
          0.209,
          0.2092,
          0.208,
          0.2097,
          0.2071,
          0.2097,
          0.2072,
          0.2079,
          0.2093,
          0.2087,
          0.2617,
          0.2542,
          0.2533,
          0.2545,
          0.2548,
          0.2564,
          0.2565,
          0.253,
          0.2573,
          0.254,
          0.2573,
          0.255,
          0.2558,
          0.2518,
          0.254,
          0.2549,
          0.2537,
          0.2508,
          0.2532,
          0.2498,
          0.2537,
          0.2505,
          0.2557,
          0.2505,
          0.2548,
          0.2508,
          0.2524,
          0.2512,
          0.2523,
          0.2525,
          0.2531,
          0.253,
          0.2493,
          0.2499,
          0.2538,
          0.2487,
          0.25,
          0.2486,
          0.2489,
          0.249,
          0.2491,
          0.2457,
          0.2488,
          0.2486,
          0.2483,
          0.249,
          0.2501,
          0.2446,
          0.2494,
          0.2426,
          0.2471,
          0.2464,
          0.2468,
          0.2466,
          0.2452,
          0.2449,
          0.2455,
          0.246,
          0.2459,
          0.2486,
          0.244,
          0.2456,
          0.2478,
          0.2465,
          0.2476,
          0.242,
          0.2452,
          0.2463,
          0.2456,
          0.2424,
          0.2452,
          0.2439,
          0.243,
          0.2447,
          0.246,
          0.2433,
          0.2443,
          0.2414,
          0.2444,
          0.2424,
          0.246,
          0.2418,
          0.244,
          0.2389,
          0.2445,
          0.2443,
          0.2419,
          0.2409,
          0.243,
          0.2403,
          0.241,
          0.2388,
          0.2434,
          0.237,
          0.2421,
          0.2392,
          0.2425,
          0.238,
          0.2386,
          0.2392,
          0.239,
          0.2384,
          0.2386,
          0.2392,
          0.2405,
          0.2401,
          0.2383,
          0.2359,
          0.2373,
          0.2396,
          0.2419,
          0.2359,
          0.2384,
          0.2365,
          0.2361,
          0.2361,
          0.2385,
          0.2374,
          0.2376,
          0.2365,
          0.2388,
          0.2371,
          0.2367,
          0.2355,
          0.2358,
          0.2351,
          0.2357,
          0.2366,
          0.238,
          0.235,
          0.2351,
          0.2339,
          0.2353,
          0.2317,
          0.2352,
          0.2352,
          0.2374,
          0.2333,
          0.2352,
          0.2314,
          0.2368,
          0.2353,
          0.2345,
          0.2344,
          0.2348,
          0.2301,
          0.2332,
          0.2316,
          0.2323,
          0.2313,
          0.2334,
          0.2329,
          0.2304,
          0.2322,
          0.2326,
          0.2326,
          0.2325,
          0.2322,
          0.2333,
          0.2327,
          0.2327,
          0.2276,
          0.231,
          0.2322,
          0.2323,
          0.2308,
          0.233,
          0.2323,
          0.234,
          0.231,
          0.2307,
          0.2291,
          0.2302,
          0.23,
          0.2313,
          0.2317,
          0.2332,
          0.2262,
          0.2291,
          0.2267,
          0.231,
          0.2272,
          0.2291,
          0.2295,
          0.2271,
          0.2268,
          0.2281,
          0.2272,
          0.2299,
          0.2261,
          0.2299,
          0.2276,
          0.2279,
          0.2251,
          0.2304,
          0.2279,
          0.2274,
          0.2268,
          0.2264,
          0.2284,
          0.2297,
          0.2264,
          0.2294,
          0.2269,
          0.2258,
          0.2277,
          0.2285,
          0.2286,
          0.2266,
          0.226,
          0.2246,
          0.2244,
          0.2262,
          0.2279,
          0.2282,
          0.2289,
          0.2268,
          0.2255,
          0.2254,
          0.2254,
          0.2276,
          0.2259,
          0.2271,
          0.2259,
          0.2281,
          0.2265,
          0.2282,
          0.2254,
          0.2256,
          0.2246,
          0.2251,
          0.2268,
          0.2289,
          0.2249,
          0.2282,
          0.2244,
          0.2244,
          0.2254,
          0.2263,
          0.2269,
          0.2277,
          0.2236,
          0.2214,
          0.2234,
          0.2262,
          0.2252,
          0.2273,
          0.2255,
          0.2274,
          0.2246,
          0.2258,
          0.2256,
          0.2269,
          0.2261,
          0.2284,
          0.2259,
          0.2297,
          0.2275,
          0.2273,
          0.2306,
          0.2314,
          0.2301,
          0.23,
          0.2301,
          0.231,
          0.2324,
          0.2317,
          0.2298,
          0.2312,
          0.2315,
          0.2337,
          0.2325,
          0.233,
          0.2319,
          0.235,
          0.2312,
          0.2359,
          0.3314,
          0.3323,
          0.3389,
          0.3333,
          0.3352,
          0.3327,
          0.3374,
          0.3358,
          0.3332,
          0.3407,
          0.3388,
          0.337,
          0.3487,
          0.3405,
          0.3407,
          0.3424,
          0.3375,
          0.3417,
          0.3401,
          0.3474,
          0.346,
          0.3428,
          0.3458,
          0.3516,
          0.3488,
          0.3487,
          0.3543,
          0.3488,
          0.3521,
          0.3461,
          0.3545,
          0.3488,
          0.349,
          0.345,
          0.3467,
          0.3471,
          0.3516,
          0.3446,
          0.3513,
          0.3439,
          0.3472,
          0.3455,
          0.3505,
          0.3468,
          0.3417,
          0.3412,
          0.3426,
          0.338,
          0.3342,
          0.3326,
          0.3337,
          0.3293,
          0.3281,
          0.3244,
          0.3303,
          0.3273,
          0.3211,
          0.2998,
          0.32,
          0.3089,
          0.3196,
          0.3036,
          0.3136,
          0.3048,
          0.3085,
          0.3049,
          0.3045,
          0.3024,
          0.3004,
          0.2943,
          0.3023,
          0.3,
          0.2972,
          0.2942,
          0.297,
          0.293,
          0.2939,
          0.2924,
          0.2975,
          0.2918,
          0.2929,
          0.2957,
          0.293,
          0.2926,
          0.293,
          0.289,
          0.2929,
          0.2885,
          0.2869,
          0.274,
          0.2841,
          0.2818,
          0.2879,
          0.2786,
          0.2847,
          0.2852,
          0.28,
          0.2749,
          0.2796,
          0.2814,
          0.2827,
          0.2763,
          0.2834,
          0.281,
          0.2795,
          0.28,
          0.279,
          0.2811,
          0.2815,
          0.2751,
          0.2789,
          0.2805,
          0.276,
          0.278,
          0.277,
          0.2803,
          0.2777,
          0.2758,
          0.2805,
          0.2775,
          0.2792,
          0.2695,
          0.2758,
          0.2766,
          0.28,
          0.2748,
          0.2813,
          0.2772,
          0.2783,
          0.2729,
          0.278,
          0.2751,
          0.2769,
          0.2747,
          0.2783,
          0.2771,
          0.2789,
          0.2752,
          0.2797,
          0.2761,
          0.2789,
          0.2751,
          0.2756,
          0.277,
          0.2775,
          0.2749,
          0.2761,
          0.2776,
          0.2813,
          0.2751,
          0.2772,
          0.2753,
          0.2785,
          0.2749,
          0.2742,
          0.2794,
          0.2741,
          0.2734,
          0.2802,
          0.279,
          0.2755,
          0.2749,
          0.2777,
          0.2769,
          0.2762,
          0.2707,
          0.2752,
          0.2771,
          0.2789,
          0.2788,
          0.2741,
          0.2743,
          0.2736,
          0.2754,
          0.2744,
          0.2748,
          0.2769,
          0.2739,
          0.2784,
          0.276,
          0.2743,
          0.2673,
          0.2735,
          0.2748,
          0.2788,
          0.2605,
          0.2729,
          0.27,
          0.2741,
          0.2678,
          0.2709,
          0.2759,
          0.2741,
          0.2735,
          0.2739,
          0.2767,
          0.2715,
          0.2767,
          0.2705,
          0.2751,
          0.2759,
          0.2706,
          0.2743,
          0.2713,
          0.2746,
          0.272,
          0.2716,
          0.271,
          0.2721,
          0.2696,
          0.2742,
          0.2706,
          0.2705,
          0.2693,
          0.2744,
          0.2744,
          0.2756,
          0.2669,
          0.2737,
          0.2695,
          0.274,
          0.2695,
          0.2733,
          0.271,
          0.2715,
          0.2728,
          0.2756,
          0.2736,
          0.2732,
          0.2689,
          0.2736,
          0.2757,
          0.2696,
          0.2709,
          0.2736,
          0.2725,
          0.2715,
          0.2684,
          0.2731,
          0.2748,
          0.2756,
          0.2714,
          0.2722,
          0.2715,
          0.2748,
          0.2699,
          0.2755,
          0.2747,
          0.2738,
          0.2639,
          0.2719,
          0.2689,
          0.2721,
          0.267,
          0.2708,
          0.2718,
          0.2701,
          0.2642,
          0.2703,
          0.2721,
          0.2721,
          0.2691,
          0.2725,
          0.2736,
          0.2725,
          0.2702,
          0.2711,
          0.2693,
          0.274,
          0.2695,
          0.2671,
          0.2718,
          0.2745,
          0.2697,
          0.2687,
          0.2741,
          0.273,
          0.2709,
          0.27,
          0.2742,
          0.2708,
          0.2675,
          0.2739,
          0.2719,
          0.2727,
          0.2658,
          0.2739,
          0.2725,
          0.2719,
          0.2683,
          0.2704,
          0.2736,
          0.2685,
          0.2682,
          0.27,
          0.2691,
          0.2696,
          0.2626,
          0.2695,
          0.2687,
          0.2725,
          0.2677,
          0.2691,
          0.2705,
          0.2679,
          0.2688,
          0.2666,
          0.2709,
          0.2704,
          0.265,
          0.2704,
          0.2676,
          0.2708,
          0.2608,
          0.2722,
          0.2666,
          0.2712,
          0.267,
          0.2717,
          0.2657,
          0.2685,
          0.2674,
          0.2669,
          0.2673,
          0.2694,
          0.2676,
          0.2696,
          0.2685,
          0.2732,
          0.2686,
          0.2685,
          0.2703,
          0.2698,
          0.2642,
          0.2661,
          0.2688,
          0.2643,
          0.2663,
          0.2688,
          0.2682,
          0.269,
          0.2664,
          0.2692,
          0.2676,
          0.2694,
          0.262,
          0.2663,
          0.2667,
          0.2732,
          0.2661,
          0.2687,
          0.2681,
          0.269,
          0.2673,
          0.2666,
          0.269,
          0.2674,
          0.2657,
          0.2727,
          0.2696,
          0.2651,
          0.2658,
          0.2668,
          0.2675,
          0.2698,
          0.2677,
          0.2713,
          0.2661,
          0.2672,
          0.2664,
          0.2659,
          0.2639,
          0.269,
          0.2645,
          0.2692,
          0.2667,
          0.2697,
          0.2632,
          0.2662,
          0.2632,
          0.2659,
          0.2642,
          0.2672,
          0.2682,
          0.2673,
          0.2652,
          0.2699,
          0.268,
          0.2659,
          0.2654,
          0.2696,
          0.2692,
          0.2633,
          0.2661,
          0.2673,
          0.2685,
          0.2683,
          0.2631,
          0.2661,
          0.271,
          0.2652,
          0.2659,
          0.2694,
          0.2658,
          0.2686,
          0.2641,
          0.268,
          0.2703,
          0.2685,
          0.2651,
          0.2688,
          0.2653,
          0.2673,
          0.2633,
          0.2698,
          0.2674,
          0.2677,
          0.2639,
          0.2681,
          0.2661,
          0.2698,
          0.2642,
          0.2684,
          0.2682,
          0.2686,
          0.2668,
          0.2697,
          0.2674,
          0.2662,
          0.2635,
          0.2684,
          0.2641,
          0.2681,
          0.2701,
          0.2716,
          0.2706,
          0.2686,
          0.2645,
          0.2711,
          0.2652,
          0.2673,
          0.2571,
          0.2686,
          0.2624,
          0.2655,
          0.2609,
          0.2653,
          0.2635,
          0.2652,
          0.2607,
          0.2638,
          0.2632,
          0.2659,
          0.2611,
          0.2669,
          0.2703,
          0.2662,
          0.265,
          0.2702,
          0.265,
          0.2694,
          0.2631,
          0.2681,
          0.2652,
          0.2652,
          0.2665,
          0.267,
          0.2641,
          0.2661,
          0.2642,
          0.2701,
          0.2663,
          0.266,
          0.2619,
          0.2695,
          0.2677,
          0.2692,
          0.2635,
          0.2655,
          0.2663,
          0.2669,
          0.2648,
          0.2687,
          0.264,
          0.2702,
          0.2633,
          0.2714,
          0.269,
          0.2701,
          0.2661,
          0.2684,
          0.2668,
          0.2699,
          0.2682,
          0.2685,
          0.2698,
          0.2704,
          0.2658,
          0.2677,
          0.2706,
          0.267,
          0.2652,
          0.2705,
          0.2718,
          0.2697,
          0.261,
          0.2697,
          0.2645,
          0.2697,
          0.2649,
          0.266,
          0.268,
          0.2693,
          0.2686,
          0.2726,
          0.2688,
          0.2684,
          0.2662,
          0.2715,
          0.2675,
          0.2717,
          0.2643,
          0.2759,
          0.2684,
          0.2688,
          0.266,
          0.2701,
          0.2666,
          0.269,
          0.2691,
          0.2723,
          0.2683,
          0.2694,
          0.2666,
          0.2689,
          0.266,
          0.269,
          0.2658,
          0.2697,
          0.2675,
          0.2712,
          0.2656,
          0.2688,
          0.271,
          0.2708,
          0.2678,
          0.2704,
          0.2663,
          0.2715,
          0.2698,
          0.2734,
          0.2708,
          0.2701,
          0.268,
          0.2722,
          0.2696,
          0.2729,
          0.2696,
          0.2725,
          0.2725,
          0.2721,
          0.27,
          0.2715,
          0.2698,
          0.2705,
          0.2683,
          0.2744,
          0.2706,
          0.2719,
          0.2614,
          0.2707,
          0.2684,
          0.2744,
          0.2656,
          0.2691,
          0.2702,
          0.2732,
          0.2705,
          0.2722,
          0.2689,
          0.2735,
          0.268,
          0.2755,
          0.2719,
          0.2715,
          0.2688,
          0.2766,
          0.2707,
          0.2714,
          0.2702,
          0.2766,
          0.2711,
          0.2687,
          0.2739,
          0.2742,
          0.2721,
          0.2728,
          0.2706,
          0.2746,
          0.2703,
          0.275,
          0.2686,
          0.2747,
          0.2687,
          0.2723,
          0.2672,
          0.2712,
          0.2721,
          0.2737,
          0.2687,
          0.2712,
          0.2705,
          0.2734,
          0.2736,
          0.2785,
          0.2741,
          0.268,
          0.2716,
          0.274,
          0.2742,
          0.2728,
          0.2678,
          0.2738,
          0.2751,
          0.2765,
          0.2715,
          0.2716,
          0.2713,
          0.2722,
          0.2694,
          0.2709,
          0.2722,
          0.2705,
          0.2693,
          0.271,
          0.2666,
          0.2762,
          0.2643,
          0.278,
          0.272,
          0.2716,
          0.2697,
          0.2763,
          0.2723,
          0.2759,
          0.2737,
          0.2743,
          0.2745,
          0.2751,
          0.2726,
          0.282,
          0.2722,
          0.2747,
          0.2712,
          0.2754,
          0.2713,
          0.2753,
          0.2689,
          0.273,
          0.27,
          0.277,
          0.2732,
          0.2705,
          0.2755,
          0.2754,
          0.272,
          0.2745,
          0.2734,
          0.2809,
          0.2662,
          0.2732,
          0.2754,
          0.2747,
          0.2732,
          0.2757,
          0.2718,
          0.2746,
          0.2715,
          0.2745,
          0.2741,
          0.2748,
          0.2691,
          0.272,
          0.2738,
          0.277,
          0.2706,
          0.2746,
          0.2751,
          0.2763,
          0.2738,
          0.2739,
          0.2757,
          0.276,
          0.2706,
          0.2747,
          0.2739,
          0.2728,
          0.2624,
          0.2714,
          0.2689,
          0.2733,
          0.267,
          0.2717,
          0.2693,
          0.2733,
          0.2691,
          0.2738,
          0.273,
          0.2747,
          0.2699,
          0.271,
          0.2736,
          0.2694,
          0.269,
          0.2718,
          0.2683,
          0.2736,
          0.267,
          0.2693,
          0.2735,
          0.2682,
          0.2684,
          0.269,
          0.2651,
          0.2701,
          0.2685,
          0.2677,
          0.2714,
          0.2712,
          0.262,
          0.2685,
          0.2636,
          0.2724,
          0.2643,
          0.2703,
          0.2675,
          0.2713,
          0.2628,
          0.2706,
          0.2659,
          0.2665,
          0.2623,
          0.2643,
          0.268,
          0.2658,
          0.2642,
          0.2657,
          0.2628,
          0.2654,
          0.2621,
          0.2665,
          0.2672,
          0.2619,
          0.2629,
          0.2639,
          0.2643,
          0.2663,
          0.2605,
          0.261,
          0.2621,
          0.2603,
          0.2583,
          0.2615,
          0.2564,
          0.2597,
          0.2554,
          0.2634,
          0.2611,
          0.2611,
          0.2593,
          0.2613,
          0.2603,
          0.2579,
          0.2551,
          0.2608,
          0.257,
          0.2575,
          0.2533,
          0.2582,
          0.2583,
          0.2591,
          0.2548,
          0.2561,
          0.2572,
          0.2547,
          0.2546,
          0.2571,
          0.2552,
          0.258,
          0.2523,
          0.2553,
          0.2559,
          0.2559,
          0.2517,
          0.2543,
          0.2523,
          0.2505,
          0.2486,
          0.2546,
          0.2514,
          0.252,
          0.247,
          0.253,
          0.2512,
          0.2527,
          0.2488,
          0.251,
          0.2523,
          0.2483,
          0.2469,
          0.2523,
          0.2499,
          0.2491,
          0.2483,
          0.2518,
          0.2469,
          0.25,
          0.2463,
          0.2477,
          0.2482,
          0.2492,
          0.2427,
          0.2468,
          0.2484,
          0.245,
          0.239,
          0.2446,
          0.2416,
          0.2443,
          0.2391,
          0.2436,
          0.2406,
          0.2434,
          0.2432,
          0.2432,
          0.2427,
          0.2467,
          0.2434,
          0.2423,
          0.2436,
          0.2413,
          0.2405,
          0.2399,
          0.2381,
          0.2407,
          0.2356,
          0.2367,
          0.2361,
          0.2362,
          0.2381,
          0.2415,
          0.2382,
          0.2383,
          0.2343,
          0.2371,
          0.2375,
          0.2354,
          0.2317,
          0.2378,
          0.2339,
          0.2373,
          0.2335,
          0.235,
          0.2373,
          0.2348,
          0.2314,
          0.2349,
          0.2335,
          0.2375,
          0.2322,
          0.235,
          0.2368,
          0.2313,
          0.2325,
          0.2342,
          0.2321,
          0.2321,
          0.229,
          0.2343,
          0.2298,
          0.2318,
          0.2303,
          0.2318,
          0.231,
          0.2315,
          0.2265,
          0.2285,
          0.2301,
          0.227,
          0.2216,
          0.2293,
          0.2253,
          0.2288,
          0.2241,
          0.2271,
          0.2265,
          0.2273,
          0.225,
          0.2271,
          0.2248,
          0.2241,
          0.2231,
          0.2273,
          0.2275,
          0.2248,
          0.2224,
          0.2261,
          0.2234,
          0.2244,
          0.2197,
          0.2248,
          0.2231,
          0.2242,
          0.2213,
          0.2257,
          0.2206,
          0.2243,
          0.2188,
          0.2231,
          0.2233,
          0.2189,
          0.22,
          0.2208,
          0.2204,
          0.2195,
          0.2179,
          0.2202,
          0.217,
          0.2205,
          0.2161,
          0.2201,
          0.2168,
          0.2173,
          0.2154,
          0.218,
          0.218,
          0.2179,
          0.2153,
          0.2162,
          0.2149,
          0.2156,
          0.2132,
          0.2185,
          0.218,
          0.216,
          0.2145,
          0.2169,
          0.2132,
          0.2143,
          0.2118,
          0.2158,
          0.2147,
          0.2124,
          0.2084,
          0.2127,
          0.2097,
          0.2127,
          0.2097,
          0.2128,
          0.215,
          0.2113,
          0.2106,
          0.2126,
          0.2106,
          0.2115,
          0.2091,
          0.2131,
          0.2121,
          0.2115,
          0.2101,
          0.2107,
          0.2094,
          0.2087,
          0.2069,
          0.2086,
          0.2089,
          0.211,
          0.2098,
          0.2095,
          0.2091,
          0.2098,
          0.2075,
          0.2102,
          0.2077,
          0.209,
          0.2075,
          0.2102,
          0.2068,
          0.2075,
          0.2087,
          0.2082,
          0.2071,
          0.2066,
          0.2058,
          0.2079,
          0.2079,
          0.2076,
          0.2073,
          0.2077,
          0.2089,
          0.2065,
          0.2067,
          0.2085,
          0.2085,
          0.2068,
          0.2056,
          0.2095,
          0.2079,
          0.206,
          0.2059,
          0.2076,
          0.2085,
          0.2087,
          0.2054,
          0.2081,
          0.2084,
          0.2087,
          0.206,
          0.2078,
          0.208,
          0.2086,
          0.2043,
          0.2063,
          0.206,
          0.2076,
          0.2067,
          0.2078,
          0.2059,
          0.2068,
          0.2036,
          0.2049,
          0.207,
          0.206,
          0.2072,
          0.2066,
          0.2052,
          0.2071,
          0.2015,
          0.2049,
          0.2048,
          0.2041,
          0.2032,
          0.2047,
          0.2033,
          0.2038,
          0.2002,
          0.2014,
          0.2029,
          0.2018,
          0.2005,
          0.2013,
          0.1995,
          0.2017,
          0.1995,
          0.2007,
          0.2004,
          0.1987,
          0.1996,
          0.2005,
          0.2004,
          0.2007,
          0.2001,
          0.2004,
          0.1997,
          0.2005,
          0.2002,
          0.2021,
          0.2013,
          0.203,
          0.2014,
          0.2021,
          0.2046,
          0.204,
          0.2021,
          0.2025,
          0.2019,
          0.2022,
          0.1989,
          0.2013,
          0.1995,
          0.1999,
          0.1892,
          0.1953,
          0.195,
          0.1956,
          0.1905,
          0.1941,
          0.1924,
          0.1952,
          0.1926,
          0.195,
          0.1945,
          0.195,
          0.1908,
          0.1941,
          0.1932,
          0.1923,
          0.1898,
          0.1912,
          0.1905,
          0.1918,
          0.1886,
          0.1914,
          0.191,
          0.1914,
          0.1898,
          0.1906,
          0.1899,
          0.192,
          0.1895,
          0.1901,
          0.1917,
          0.1914,
          0.1843,
          0.1902,
          0.1894,
          0.1908,
          0.1871,
          0.1891,
          0.1909,
          0.1885,
          0.1885,
          0.1902,
          0.1901,
          0.1913,
          0.1873,
          0.1883,
          0.1907,
          0.1885,
          0.1868,
          0.1892,
          0.189,
          0.1907,
          0.1878,
          0.1895,
          0.1893,
          0.1866,
          0.1886,
          0.1882,
          0.1892,
          0.1921,
          0.1891,
          0.1914,
          0.1908,
          0.1891,
          0.1857,
          0.1884,
          0.1885,
          0.1897,
          0.1852,
          0.1878,
          0.1877,
          0.1885,
          0.1856,
          0.1876,
          0.1853,
          0.1866,
          0.185,
          0.1854,
          0.186,
          0.1865,
          0.1844,
          0.1851,
          0.1854,
          0.1836,
          0.1828,
          0.184,
          0.1826,
          0.1845,
          0.1822,
          0.1842,
          0.184,
          0.1844,
          0.1801,
          0.1832,
          0.1842,
          0.1831,
          0.1795,
          0.1825,
          0.1817,
          0.1833,
          0.1812,
          0.1833,
          0.1839,
          0.1836,
          0.1811,
          0.1828,
          0.1812,
          0.183,
          0.1798,
          0.1813,
          0.1812,
          0.1815,
          0.1786,
          0.1807,
          0.1808,
          0.1802,
          0.179,
          0.178,
          0.1797,
          0.1791,
          0.1766,
          0.1772,
          0.1789,
          0.1777,
          0.1743,
          0.1793,
          0.1784,
          0.1793,
          0.1753,
          0.1774,
          0.1775,
          0.1796,
          0.1779,
          0.1822,
          0.1817,
          0.1846,
          0.1837,
          0.1891,
          0.1928,
          0.2003,
          0.2088,
          0.2275,
          0.2595,
          0.3145,
          0.3668,
          0.3518,
          0.273,
          0.2351,
          0.207,
          0.1988,
          0.1996,
          0.1896,
          0.1855,
          0.1866,
          0.183,
          0.1852,
          0.183,
          0.1837,
          0.1842,
          0.1817,
          0.1796,
          0.1813,
          0.1813,
          0.1824,
          0.1783,
          0.1823,
          0.1816,
          0.1807,
          0.1814,
          0.1804,
          0.1791,
          0.1802,
          0.1792,
          0.179,
          0.1811,
          0.1814,
          0.1786,
          0.1801,
          0.1799,
          0.1805,
          0.1794,
          0.1789,
          0.1805,
          0.1793,
          0.1801,
          0.1794,
          0.1789,
          0.1818,
          0.1773,
          0.179,
          0.1797,
          0.18,
          0.1762,
          0.1792,
          0.1797,
          0.1807,
          0.1776,
          0.181,
          0.1815,
          0.1805,
          0.1807,
          0.1823,
          0.1813,
          0.185,
          0.1831,
          0.1848,
          0.1859,
          0.1856,
          0.1847,
          0.1869,
          0.1862,
          0.1882,
          0.1863,
          0.192,
          0.1918,
          0.1923,
          0.1919,
          0.1933,
          0.1953,
          0.1946,
          0.1941,
          0.1979,
          0.1985,
          0.1984,
          0.1978,
          0.1994,
          0.1973,
          0.1998,
          0.1969,
          0.1997,
          0.1977,
          0.1978,
          0.1971,
          0.1974,
          0.1969,
          0.1961,
          0.1941,
          0.1952,
          0.1947,
          0.1941,
          0.1908,
          0.1935,
          0.1919,
          0.1917,
          0.1898,
          0.1877,
          0.1874,
          0.1889,
          0.1852,
          0.1866,
          0.185,
          0.1861,
          0.1823,
          0.184,
          0.1821,
          0.1806,
          0.1765,
          0.1806,
          0.1789,
          0.18,
          0.1753,
          0.1788,
          0.1774,
          0.177,
          0.1755,
          0.1783,
          0.1765,
          0.1767,
          0.1746,
          0.1764,
          0.1751,
          0.1743,
          0.1727,
          0.1746,
          0.1751,
          0.1751,
          0.1722,
          0.1735,
          0.1739,
          0.172,
          0.1724,
          0.1725,
          0.1737,
          0.1728,
          0.1707,
          0.1727,
          0.1726,
          0.1718,
          0.1698,
          0.1737,
          0.1729,
          0.1728,
          0.1717,
          0.174,
          0.176,
          0.176,
          0.1745,
          0.1781,
          0.1779,
          0.1799,
          0.1788,
          0.1815,
          0.1852,
          0.1831,
          0.1842,
          0.1864,
          0.1876,
          0.1887,
          0.1851,
          0.1882,
          0.1894,
          0.1886,
          0.187,
          0.1875,
          0.188,
          0.1862,
          0.1853,
          0.1846,
          0.1837,
          0.182,
          0.18,
          0.1801,
          0.1805,
          0.1799,
          0.1736,
          0.1761,
          0.1756,
          0.1756,
          0.1725,
          0.1746,
          0.1725,
          0.1716,
          0.17,
          0.1698,
          0.1705,
          0.1689,
          0.1671,
          0.167,
          0.1667,
          0.1662,
          0.164,
          0.1647,
          0.1631,
          0.1623,
          0.1615,
          0.1621,
          0.1618,
          0.1618,
          0.1597,
          0.1614,
          0.1604,
          0.1612,
          0.1589,
          0.2008,
          0.2026,
          0.2015,
          0.202,
          0.1989,
          0.2008,
          0.1994,
          0.1993,
          0.1973,
          0.1992,
          0.1978,
          0.196,
          0.1952,
          0.1973,
          0.1958,
          0.1967,
          0.1951,
          0.195,
          0.1936,
          0.1931,
          0.1938,
          0.1943,
          0.1934,
          0.1945,
          0.1935,
          0.1944,
          0.1922,
          0.1904,
          0.1908,
          0.1937,
          0.1908,
          0.1864,
          0.189,
          0.1862,
          0.1883,
          0.1866,
          0.1875,
          0.1875,
          0.1888,
          0.1874,
          0.1854,
          0.187,
          0.1852,
          0.1857,
          0.1856,
          0.1855,
          0.1842,
          0.1842,
          0.1838,
          0.184,
          0.1824,
          0.1828,
          0.184,
          0.1847,
          0.1807,
          0.182,
          0.1826,
          0.1838,
          0.1816,
          0.1827,
          0.182,
          0.1831,
          0.1814,
          0.1811,
          0.18,
          0.1808,
          0.1813,
          0.1803,
          0.1797,
          0.1815,
          0.18,
          0.1799,
          0.1786,
          0.1803,
          0.1792,
          0.1791,
          0.1784,
          0.1806,
          0.1783,
          0.1802,
          0.1765,
          0.1781,
          0.1756,
          0.1763,
          0.1754,
          0.1751,
          0.175,
          0.1747,
          0.175,
          0.175,
          0.1744,
          0.175,
          0.1748,
          0.1756,
          0.1734,
          0.1695,
          0.171,
          0.1703,
          0.1703,
          0.1683,
          0.1692,
          0.1687,
          0.1684,
          0.1681,
          0.1673,
          0.1693,
          0.1677,
          0.168,
          0.1688,
          0.1688,
          0.1665,
          0.1657,
          0.1655,
          0.1665,
          0.1652,
          0.1658,
          0.1656,
          0.1674,
          0.1641,
          0.1668,
          0.1651,
          0.1658,
          0.1648,
          0.1657,
          0.1653,
          0.1693,
          0.1661,
          0.1683,
          0.1678,
          0.1682,
          0.1684,
          0.1686,
          0.169,
          0.1683,
          0.1688,
          0.1677,
          0.167,
          0.169,
          0.1677,
          0.1673,
          0.166,
          0.1669,
          0.1636,
          0.1646,
          0.1615,
          0.1623,
          0.1603,
          0.1607,
          0.1591,
          0.1587,
          0.158,
          0.1582,
          0.1573,
          0.1559,
          0.1541,
          0.1545,
          0.1534,
          0.1549,
          0.1529,
          0.1517,
          0.1533,
          0.1526,
          0.1521,
          0.1506,
          0.1495,
          0.1493,
          0.1482,
          0.148,
          0.1479,
          0.148,
          0.1466,
          0.148,
          0.1458,
          0.1496,
          0.1504,
          0.1531,
          0.1548,
          0.158,
          0.1578,
          0.1514,
          0.1472,
          0.1456,
          0.1437,
          0.1437,
          0.1421,
          0.1425,
          0.1415,
          0.1407,
          0.1406,
          0.1406,
          0.1389,
          0.1392,
          0.1383,
          0.1385,
          0.1375,
          0.1369,
          0.1366,
          0.1376,
          0.1369,
          0.1372,
          0.1358,
          0.1381,
          0.1366,
          0.1374,
          0.1382,
          0.1401,
          0.1404,
          0.142,
          0.1429,
          0.1465,
          0.1485,
          0.1511,
          0.1539,
          0.1584,
          0.1586,
          0.1613,
          0.1604,
          0.1639,
          0.1599,
          0.1607,
          0.1569,
          0.1511,
          0.1438,
          0.1388,
          0.137,
          0.1356,
          0.1341,
          0.1318,
          0.1303,
          0.1292,
          0.1278,
          0.1269,
          0.1256,
          0.1254,
          0.1248,
          0.1224,
          0.122,
          0.1218,
          0.1199,
          0.1199,
          0.1206,
          0.1233,
          0.1261,
          0.1302,
          0.1299,
          0.1284,
          0.1239,
          0.1201,
          0.1167,
          0.1156,
          0.1145,
          0.1135,
          0.1118,
          0.112,
          0.1107,
          0.1116,
          0.1116,
          0.1137,
          0.1137,
          0.115,
          0.1158,
          0.1199,
          0.1214,
          0.1251,
          0.1277,
          0.1323,
          0.135,
          0.1421,
          0.1485,
          0.1565,
          0.1553,
          0.159,
          0.1634,
          0.1672,
          0.1629,
          0.1591,
          0.1551,
          0.1535,
          0.1509,
          0.1507,
          0.1489,
          0.1493,
          0.1463,
          0.148,
          0.1472,
          0.1491,
          0.1468,
          0.1453,
          0.1452,
          0.1448,
          0.1452,
          0.1446,
          0.1445,
          0.1464,
          0.1463,
          0.1482,
          0.1477,
          0.1504,
          0.1498,
          0.1521,
          0.1514,
          0.1563,
          0.1567,
          0.1591,
          0.1622,
          0.1665,
          0.1687,
          0.1725,
          0.1775,
          0.1829,
          0.1884,
          0.1936,
          0.2026,
          0.2057,
          0.2119,
          0.2165,
          0.224,
          0.2355,
          0.246,
          0.2574,
          0.2723,
          0.2823,
          0.2953,
          0.3026,
          0.3109,
          0.3103,
          0.3023,
          0.2909,
          0.2807,
          0.272,
          0.2569,
          0.2447,
          0.2395,
          0.2342,
          0.2267,
          0.2216,
          0.2182,
          0.2106,
          0.2061,
          0.2009,
          0.2002,
          0.1964,
          0.1919,
          0.1891,
          0.1843,
          0.1816,
          0.1832,
          0.1756,
          0.1731,
          0.175,
          0.1697,
          0.1681,
          0.1722,
          0.1695,
          0.1675,
          0.161,
          0.1604,
          0.1606,
          0.1553,
          0.1547,
          0.1526,
          0.1551,
          0.1489,
          0.1467,
          0.1443,
          0.1442,
          0.1426,
          0.1402,
          0.1388,
          0.1388,
          0.1377,
          0.1359,
          0.1343,
          0.134,
          0.1316,
          0.1322,
          0.1308,
          0.1291,
          0.1278,
          0.1272,
          0.125,
          0.1253,
          0.124,
          0.1239,
          0.1228,
          0.1227,
          0.1212,
          0.1211,
          0.1205,
          0.121,
          0.121,
          0.1213,
          0.1209,
          0.1215,
          0.1197,
          0.1195,
          0.1169,
          0.1164,
          0.1133,
          0.1135,
          0.1124,
          0.112,
          0.1109,
          0.1112,
          0.1114,
          0.1141,
          0.1145,
          0.1137,
          0.1098,
          0.1074,
          0.107,
          0.1086,
          0.1079,
          0.1071,
          0.1057,
          0.1039,
          0.1035,
          0.103,
          0.1024,
          0.1024,
          0.1037,
          0.1052,
          0.1043,
          0.1028,
          0.0993,
          0.0988,
          0.097,
          0.0959,
          0.0935,
          0.0926,
          0.0905,
          0.0902,
          0.0909,
          0.0919,
          0.0919,
          0.0922,
          0.0929,
          0.0942,
          0.0959,
          0.1027,
          0.109,
          0.1094,
          0.1065,
          0.104,
          0.1035,
          0.1046,
          0.1042,
          0.1042,
          0.1055,
          0.1071,
          0.1105,
          0.1129,
          0.1188,
          0.1273,
          0.1377,
          0.1477,
          0.1526,
          0.1571,
          0.159,
          0.1572,
          0.158,
          0.1568,
          0.1533,
          0.1495,
          0.1467,
          0.1434,
          0.1371,
          0.1311,
          0.1271,
          0.1243,
          0.1206,
          0.1165,
          0.1132,
          0.1102,
          0.1075,
          0.1333,
          0.1306,
          0.1302,
          0.1292,
          0.1281,
          0.1276,
          0.1268,
          0.1263,
          0.1258,
          0.1242,
          0.1231,
          0.1231,
          0.1224,
          0.1212,
          0.1213,
          0.1211,
          0.1204,
          0.1194,
          0.1187,
          0.1185,
          0.1187,
          0.1193,
          0.1192,
          0.1189,
          0.1173,
          0.1163,
          0.1171,
          0.1171,
          0.1161,
          0.1139,
          0.1154,
          0.1141,
          0.1151,
          0.1124,
          0.1125,
          0.1123,
          0.1123,
          0.1114,
          0.1121,
          0.1121,
          0.1126,
          0.1125,
          0.1142,
          0.1163,
          0.1187,
          0.1215,
          0.1272,
          0.1342,
          0.1388,
          0.138,
          0.1347,
          0.1272,
          0.1198,
          0.114,
          0.1109,
          0.1079,
          0.1059,
          0.1046,
          0.1041,
          0.1031,
          0.1018,
          0.0998,
          0.1002,
          0.0995,
          0.0993,
          0.0983,
          0.0992,
          0.0997,
          0.1007,
          0.1012,
          0.1004,
          0.0988,
          0.0984,
          0.0976,
          0.0981,
          0.0982,
          0.0984,
          0.0982,
          0.0998,
          0.1011,
          0.1025,
          0.1041,
          0.107,
          0.1091,
          0.1108,
          0.1132,
          0.1171,
          0.121,
          0.1232,
          0.125,
          0.1267,
          0.1272,
          0.1269,
          0.1259,
          0.1279,
          0.1264,
          0.1275,
          0.1242,
          0.1251,
          0.123,
          0.1225,
          0.121,
          0.1192,
          0.1179,
          0.1165,
          0.115,
          0.1139,
          0.1132,
          0.1119,
          0.112,
          0.1126,
          0.1151,
          0.1185,
          0.123,
          0.1285,
          0.1311,
          0.1294,
          0.1239,
          0.1183,
          0.1133,
          0.1099,
          0.1065,
          0.1046,
          0.1031,
          0.1017,
          0.1005,
          0.0994,
          0.0989,
          0.0982,
          0.0985,
          0.0991,
          0.0986,
          0.0969,
          0.096,
          0.0956,
          0.0949,
          0.0945,
          0.0928,
          0.0928,
          0.0923,
          0.0911,
          0.0904,
          0.0901,
          0.09,
          0.0892,
          0.0884,
          0.0887,
          0.0889,
          0.0888,
          0.0895,
          0.091,
          0.0917,
          0.0923,
          0.0913,
          0.0919,
          0.0918,
          0.091,
          0.0896,
          0.0903,
          0.0897,
          0.0905,
          0.0899,
          0.0919,
          0.0929,
          0.0944,
          0.0961,
          0.0979,
          0.0995,
          0.101,
          0.1008,
          0.102,
          0.1016,
          0.1004,
          0.0994,
          0.0992,
          0.0981,
          0.0972,
          0.0958,
          0.0951,
          0.0952,
          0.0942,
          0.0937,
          0.0941,
          0.0951,
          0.0957,
          0.0952,
          0.095,
          0.0943,
          0.0927,
          0.0912,
          0.0917,
          0.0911,
          0.0916,
          0.0914,
          0.0919,
          0.0921,
          0.0915,
          0.0909,
          0.0909,
          0.0903,
          0.0898,
          0.089,
          0.0895,
          0.0892,
          0.0886,
          0.0879,
          0.0869,
          0.0865,
          0.0855,
          0.0853,
          0.0859,
          0.0859,
          0.0841,
          0.0816,
          0.0804,
          0.0786,
          0.0778,
          0.0764,
          0.0762,
          0.0755,
          0.0751,
          0.0751,
          0.0776,
          0.0797,
          0.0825,
          0.0828,
          0.0845,
          0.0846,
          0.0838,
          0.082,
          0.0808,
          0.0792,
          0.0777,
          0.0761,
          0.0751,
          0.074,
          0.0732,
          0.0721,
          0.0713,
          0.0705,
          0.0705,
          0.0699,
          0.0705,
          0.0708,
          0.0709,
          0.0709,
          0.0704,
          0.0692,
          0.0678,
          0.0664,
          0.0663,
          0.0659,
          0.0651,
          0.0642,
          0.0636,
          0.063,
          0.0624,
          0.0615,
          0.0613,
          0.061,
          0.0605,
          0.0602,
          0.0601,
          0.0604,
          0.061,
          0.0619,
          0.0644,
          0.0672,
          0.0676,
          0.065,
          0.0621,
          0.0605,
          0.0592,
          0.0583,
          0.0589,
          0.0606,
          0.0614,
          0.0614,
          0.0611,
          0.0612,
          0.0618,
          0.0625,
          0.0643,
          0.0661,
          0.0684,
          0.0703,
          0.0738,
          0.0756,
          0.0776,
          0.0782,
          0.0808,
          0.0802,
          0.078,
          0.0743,
          0.0716,
          0.0687,
          0.0662,
          0.0632,
          0.0613,
          0.0598,
          0.0579,
          0.0566,
          0.056,
          0.0553,
          0.0543,
          0.0527,
          0.0522,
          0.0523,
          0.052,
          0.0512,
          0.0506,
          0.0501,
          0.0496,
          0.0491,
          0.0494,
          0.0501,
          0.0506,
          0.0502,
          0.0492,
          0.0481,
          0.0474,
          0.0466,
          0.0466,
          0.0469,
          0.0472,
          0.0475,
          0.0473,
          0.0465,
          0.0455,
          0.0448,
          0.0446,
          0.044,
          0.0434,
          0.0432,
          0.044,
          0.0448,
          0.0449,
          0.0445,
          0.0449,
          0.0456,
          0.0459,
          0.0456,
          0.0445,
          0.0438,
          0.0435,
          0.0429,
          0.0427,
          0.0425,
          0.0423,
          0.0423,
          0.0427,
          0.0424,
          0.0423,
          0.0417,
          0.0418,
          0.0422,
          0.0428,
          0.0431,
          0.0433,
          0.0442,
          0.045,
          0.0447,
          0.0438,
          0.043,
          0.0422,
          0.0421,
          0.0422,
          0.0423,
          0.0423,
          0.042,
          0.0417,
          0.0415,
          0.0409,
          0.0406,
          0.0407,
          0.0408,
          0.041,
          0.0412,
          0.0419,
          0.0428,
          0.0436,
          0.0444,
          0.045,
          0.0453,
          0.0451,
          0.0444,
          0.0437,
          0.0429,
          0.0418,
          0.0411,
          0.041,
          0.0414,
          0.0416,
          0.0415,
          0.0414,
          0.0415,
          0.0415,
          0.0413,
          0.0409,
          0.0411,
          0.0413,
          0.0414,
          0.042,
          0.0427,
          0.0429,
          0.0434,
          0.0432,
          0.0423,
          0.0412,
          0.0406,
          0.0407,
          0.0407,
          0.0403,
          0.04,
          0.0398,
          0.0396,
          0.0396,
          0.0397,
          0.0397,
          0.0397,
          0.0395,
          0.0395,
          0.0394,
          0.0393,
          0.0391,
          0.039,
          0.0391,
          0.0391,
          0.0386,
          0.0385,
          0.0387,
          0.0388,
          0.0389,
          0.0385,
          0.0383,
          0.0384,
          0.0385,
          0.0384,
          0.0384,
          0.0384,
          0.0383,
          0.0381,
          0.038,
          0.0379,
          0.0376,
          0.0377,
          0.0383,
          0.0393,
          0.04,
          0.0405,
          0.0407,
          0.0409,
          0.041,
          0.0413,
          0.0416,
          0.042,
          0.0421,
          0.0422,
          0.0426,
          0.0431,
          0.0434,
          0.0442,
          0.0448,
          0.0453,
          0.0455,
          0.0458,
          0.0464,
          0.0468,
          0.0467,
          0.0468,
          0.0464,
          0.0463,
          0.0465,
          0.0467,
          0.0476,
          0.0484,
          0.0489,
          0.0496,
          0.0507,
          0.0523,
          0.0538,
          0.0558,
          0.0578,
          0.0595,
          0.0609,
          0.0629,
          0.065,
          0.0671,
          0.0693,
          0.0716,
          0.075,
          0.0796,
          0.0837,
          0.0882,
          0.0938,
          0.1004,
          0.1075,
          0.1158,
          0.1267,
          0.1393,
          0.1519,
          0.1665,
          0.183,
          0.2046,
          0.2259,
          0.2505,
          0.2895,
          0.3223,
          0.3687,
          0.4073,
          0.5431,
          0.5647,
          0.645,
          0.635,
          1.1332,
          0.8225,
          0.9176,
          1.0311,
          1.2793,
          0.953,
          2.5155,
          0.9686,
          1.3022,
          1.1561,
          0.866,
          1.0573,
          0.7859,
          0.9561,
          0.7111,
          0.7949,
          0.7429,
          0.8608,
          0.699,
          0.6952,
          0.7078,
          0.7249,
          0.5121,
          0.3759
        ]
      ]
    }
  }
}