{
  "bib": {
    "title": "Study of isobaric analog resonances in 32S nucleus viathe reactions 31P(p,g)32S, 31P(p,p)31P and31P(p,a0)28Si.",
    "authors": [
      {
        "name": "J.Vernotte"
      },
      {
        "name": "S.Gales"
      },
      {
        "name": "M.Langevin"
      },
      {
        "name": "J.M.Maison"
      }
    ],
    "institutes": [
      {
        "x4_code": "(2FR CSN)",
        "free_txt": []
      }
    ],
    "references": {
      "0": [
        {
          "x4_code": "(J,NP/A,212,493,1973)",
          "free_txt": [],
          "publication_year": "1973"
        }
      ]
    },
    "facility": {
      "0": [
        {
          "x4_code": "(VDG)",
          "free_txt": [
            " 4 MV accelerator"
          ]
        }
      ]
    },
    "history": [
      {
        "x4_code": "(20090424C)",
        "free_txt": []
      }
    ]
  },
  "F1006-001": {
    "extra_information": {
      "err-analys": {
        "0": [
          {
            "x4_code": "(EN-ERR-DIG)",
            "free_txt": [
              " Energy digitizing error"
            ]
          },
          {
            "x4_code": "(ERR-DIG)",
            "free_txt": [
              "    Data digitizing error"
            ]
          },
          {
            "x4_code": "(DATA-ERR)",
            "free_txt": [
              "   Error from the graphic bars"
            ]
          }
        ]
      },
      "facility": {
        "0": [
          {
            "x4_code": "(VDG)",
            "free_txt": [
              " 4 MV accelerator"
            ]
          }
        ]
      }
    }
  },
  "F1006-002": {
    "reaction": {
      "0": {
        "x4_code": "(15-P-31(P,EL)15-P-31,,DA)",
        "0": {
          "code": [
            "15-P-31",
            [
              "P,EL"
            ],
            "15-P-31,,DA"
          ],
          "type": null,
          "target": "15-P-31",
          "process": "P,EL",
          "sf49": "15-P-31,,DA",
          "sf4": "15-P-31",
          "sf5": null,
          "sf6": "DA",
          "sf7": null,
          "sf8": null,
          "sf9": null
        },
        "type": null,
        "free_text": ""
      }
    },
    "extra_information": {
      "detector": {
        "0": [
          {
            "x4_code": "(SIBAR)",
            "free_txt": [
              " Three surface-barrier detectors were used."
            ]
          }
        ]
      },
      "sample": {
        "0": [
          {
            "x4_code": null,
            "free_txt": [
              "The targets were prepared by phosphorus evaporation in",
              "vacuum onto carbon backing with the thickness of 15",
              "mu-g/cm2. The targets (9.0+-0.3 mu-g/cm2 thickness)",
              "were placed at the center of the reaction chamber 50 cm",
              "in diameter."
            ]
          }
        ]
      },
      "status": {
        "0": [
          {
            "x4_code": "(CURVE)",
            "free_txt": [
              " Fig.2,3,8-11"
            ]
          }
        ]
      }
    },
    "common": {
      "heads": [
        "EN-ERR-DIG",
        "ERR-DIG"
      ],
      "units": [
        "KEV",
        "MB/SR"
      ],
      "data": [
        [
          0.036
        ],
        [
          0.153
        ]
      ]
    },
    "data": {
      "heads": [
        "ANG-CM",
        "EN",
        "DATA-CM",
        "DATA-ERR"
      ],
      "units": [
        "ADEG",
        "KEV",
        "MB/SR",
        "MB/SR"
      ],
      "data": [
        [
          126.0,
          126.0,
          126.0,
          126.0,
          126.0,
          126.0,
          126.0,
          126.0,
          126.0,
          126.0,
          126.0,
          126.0,
          126.0,
          126.0,
          126.0,
          126.0,
          126.0,
          126.0,
          126.0,
          126.0,
          126.0,
          126.0,
          126.0,
          126.0,
          126.0,
          126.0,
          126.0,
          126.0,
          126.0,
          126.0,
          126.0,
          126.0,
          126.0,
          126.0,
          126.0,
          126.0,
          126.0,
          126.0,
          126.0,
          126.0,
          126.0,
          126.0,
          126.0,
          126.0,
          126.0,
          126.0,
          126.0,
          126.0,
          126.0,
          126.0,
          126.0,
          126.0,
          126.0,
          126.0,
          126.0,
          126.0,
          126.0,
          126.0,
          126.0,
          126.0,
          126.0,
          126.0,
          126.0,
          126.0,
          126.0,
          126.0,
          126.0,
          126.0,
          126.0,
          126.0,
          126.0,
          126.0,
          126.0,
          126.0,
          126.0,
          126.0,
          126.0,
          126.0,
          126.0,
          126.0,
          126.0,
          126.0,
          126.0,
          126.0,
          126.0,
          126.0,
          126.0,
          126.0,
          126.0,
          126.0,
          126.0,
          126.0,
          126.0,
          126.0,
          126.0,
          126.0,
          126.0,
          126.0,
          126.0,
          126.0,
          126.0,
          126.0,
          126.0,
          126.0,
          126.0,
          126.0,
          126.0,
          126.0,
          126.0,
          126.0,
          126.0,
          126.0,
          126.0,
          126.0,
          126.0,
          126.0,
          126.0,
          126.0,
          126.0,
          126.0,
          126.0,
          126.0,
          126.0,
          126.0,
          126.0,
          126.0,
          126.0,
          126.0,
          126.0,
          126.0,
          126.0,
          126.0,
          126.0,
          126.0,
          126.0,
          126.0,
          126.0,
          126.0,
          126.0,
          126.0,
          126.0,
          126.0,
          126.0,
          126.0,
          126.0,
          126.0,
          126.0,
          126.0,
          126.0,
          126.0,
          126.0,
          126.0,
          126.0,
          126.0,
          126.0,
          126.0,
          126.0,
          126.0,
          126.0,
          126.0,
          126.0,
          126.0,
          126.0,
          126.0,
          126.0,
          126.0,
          126.0,
          126.0,
          126.0,
          126.0,
          126.0,
          126.0,
          126.0,
          126.0,
          126.0,
          126.0,
          126.0,
          126.0,
          126.0,
          126.0,
          126.0,
          126.0,
          126.0,
          126.0,
          126.0,
          126.0,
          126.0,
          126.0,
          126.0,
          126.0,
          126.0,
          126.0,
          126.0,
          126.0,
          126.0,
          126.0,
          126.0,
          126.0,
          126.0,
          126.0,
          126.0,
          126.0,
          126.0,
          126.0,
          126.0,
          126.0,
          126.0,
          126.0,
          126.0,
          126.0,
          126.0,
          126.0,
          126.0,
          126.0,
          126.0,
          126.0,
          126.0,
          126.0,
          126.0,
          126.0,
          126.0,
          126.0,
          126.0,
          126.0,
          126.0,
          126.0,
          126.0,
          126.0,
          126.0,
          126.0,
          126.0,
          126.0,
          126.0,
          126.0,
          126.0,
          126.0,
          126.0,
          126.0,
          126.0,
          126.0,
          126.0,
          126.0,
          126.0,
          126.0,
          126.0,
          126.0,
          126.0,
          126.0,
          126.0,
          126.0,
          126.0,
          126.0,
          126.0,
          126.0,
          136.0,
          136.0,
          136.0,
          136.0,
          136.0,
          136.0,
          136.0,
          136.0,
          136.0,
          136.0,
          136.0,
          136.0,
          136.0,
          136.0,
          136.0,
          136.0,
          136.0,
          136.0,
          136.0,
          136.0,
          136.0,
          136.0,
          136.0,
          136.0,
          136.0,
          136.0,
          136.0,
          136.0,
          136.0,
          136.0,
          136.0,
          136.0,
          136.0,
          136.0,
          136.0,
          136.0,
          136.0,
          136.0,
          136.0,
          136.0,
          136.0,
          136.0,
          136.0,
          136.0,
          136.0,
          136.0,
          136.0,
          136.0,
          136.0,
          136.0,
          136.0,
          136.0,
          136.0,
          136.0,
          136.0,
          136.0,
          136.0,
          136.0,
          136.0,
          136.0,
          136.0,
          136.0,
          136.0,
          136.0,
          136.0,
          136.0,
          136.0,
          136.0,
          136.0,
          136.0,
          136.0,
          136.0,
          136.0,
          136.0,
          136.0,
          136.0,
          136.0,
          136.0,
          136.0,
          136.0,
          136.0,
          136.0,
          136.0,
          136.0,
          136.0,
          136.0,
          136.0,
          136.0,
          136.0,
          136.0,
          136.0,
          136.0,
          136.0,
          136.0,
          136.0,
          136.0,
          136.0,
          136.0,
          136.0,
          136.0,
          136.0,
          136.0,
          136.0,
          136.0,
          136.0,
          136.0,
          136.0,
          136.0,
          136.0,
          136.0,
          136.0,
          136.0,
          136.0,
          136.0,
          136.0,
          136.0,
          136.0,
          136.0,
          136.0,
          136.0,
          136.0,
          136.0,
          136.0,
          136.0,
          136.0,
          136.0,
          136.0,
          136.0,
          136.0,
          136.0,
          136.0,
          136.0,
          136.0,
          136.0,
          136.0,
          136.0,
          136.0,
          136.0,
          136.0,
          136.0,
          136.0,
          136.0,
          136.0,
          136.0,
          136.0,
          136.0,
          136.0,
          136.0,
          136.0,
          136.0,
          136.0,
          136.0,
          136.0,
          136.0,
          136.0,
          136.0,
          136.0,
          136.0,
          136.0,
          136.0,
          136.0,
          136.0,
          136.0,
          136.0,
          136.0,
          136.0,
          136.0,
          136.0,
          136.0,
          136.0,
          136.0,
          136.0,
          136.0,
          136.0,
          136.0,
          136.0,
          136.0,
          136.0,
          136.0,
          136.0,
          136.0,
          136.0,
          136.0,
          136.0,
          136.0,
          136.0,
          136.0,
          136.0,
          136.0,
          136.0,
          136.0,
          136.0,
          136.0,
          136.0,
          136.0,
          136.0,
          136.0,
          136.0,
          136.0,
          136.0,
          136.0,
          136.0,
          136.0,
          136.0,
          136.0,
          136.0,
          136.0,
          136.0,
          136.0,
          136.0,
          136.0,
          136.0,
          136.0,
          136.0,
          136.0,
          136.0,
          136.0,
          136.0,
          136.0,
          136.0,
          136.0,
          136.0,
          136.0,
          136.0,
          136.0,
          136.0,
          136.0,
          136.0,
          136.0,
          136.0,
          136.0,
          136.0,
          136.0,
          136.0,
          136.0,
          136.0,
          136.0,
          136.0,
          136.0,
          136.0,
          136.0,
          136.0,
          136.0,
          136.0,
          136.0,
          136.0,
          136.0,
          136.0,
          136.0,
          136.0,
          136.0,
          136.0,
          136.0,
          161.0,
          161.0,
          161.0,
          161.0,
          161.0,
          161.0,
          161.0,
          161.0,
          161.0,
          161.0,
          161.0,
          161.0,
          161.0,
          161.0,
          161.0,
          161.0,
          161.0,
          161.0,
          161.0,
          161.0,
          161.0,
          161.0,
          161.0,
          161.0,
          161.0,
          161.0,
          161.0,
          161.0,
          161.0,
          161.0,
          161.0,
          161.0,
          161.0,
          161.0,
          161.0,
          161.0,
          161.0,
          161.0,
          161.0,
          161.0,
          161.0,
          161.0,
          161.0,
          161.0,
          161.0,
          161.0,
          161.0,
          161.0,
          161.0,
          161.0,
          161.0,
          161.0,
          161.0,
          161.0,
          161.0,
          161.0,
          161.0,
          161.0,
          161.0,
          161.0,
          161.0,
          161.0,
          161.0,
          161.0,
          161.0,
          161.0,
          161.0,
          161.0,
          161.0,
          161.0,
          161.0,
          161.0,
          161.0,
          161.0,
          161.0,
          161.0,
          161.0,
          161.0,
          161.0,
          161.0,
          161.0,
          161.0,
          161.0,
          161.0,
          161.0,
          161.0,
          161.0,
          161.0,
          161.0,
          161.0,
          161.0,
          161.0,
          161.0,
          161.0,
          161.0,
          161.0,
          161.0,
          161.0,
          161.0,
          161.0,
          161.0,
          161.0,
          161.0,
          161.0,
          161.0,
          161.0,
          161.0,
          161.0,
          161.0,
          161.0,
          161.0,
          161.0,
          161.0,
          161.0,
          161.0,
          161.0,
          161.0,
          161.0,
          161.0,
          161.0,
          161.0,
          161.0,
          161.0,
          161.0,
          161.0,
          161.0,
          161.0,
          161.0,
          161.0,
          161.0,
          161.0,
          161.0,
          161.0,
          161.0,
          161.0,
          161.0,
          161.0,
          161.0,
          161.0,
          161.0,
          161.0,
          161.0,
          161.0,
          161.0,
          161.0,
          161.0,
          161.0,
          161.0,
          161.0,
          161.0,
          161.0,
          161.0,
          161.0,
          161.0,
          161.0,
          161.0,
          161.0,
          161.0,
          161.0,
          161.0,
          161.0,
          161.0,
          161.0,
          161.0,
          161.0,
          161.0,
          161.0,
          161.0,
          161.0,
          161.0,
          161.0,
          161.0,
          161.0,
          161.0,
          161.0,
          161.0,
          161.0,
          161.0,
          161.0,
          161.0,
          161.0,
          161.0,
          161.0,
          161.0,
          161.0,
          161.0,
          161.0,
          161.0,
          161.0,
          161.0,
          161.0,
          161.0,
          161.0,
          161.0,
          161.0,
          161.0,
          161.0,
          161.0,
          161.0,
          161.0,
          161.0,
          161.0,
          161.0,
          161.0,
          161.0,
          161.0,
          161.0,
          161.0,
          161.0,
          161.0,
          161.0,
          161.0,
          161.0,
          161.0,
          161.0,
          161.0,
          161.0,
          161.0,
          161.0,
          161.0,
          161.0,
          161.0,
          161.0,
          161.0,
          161.0,
          161.0,
          161.0,
          161.0,
          161.0,
          161.0,
          161.0,
          161.0,
          161.0,
          161.0,
          161.0,
          161.0,
          161.0,
          161.0,
          161.0,
          161.0,
          161.0,
          161.0,
          161.0,
          161.0,
          161.0,
          161.0,
          161.0,
          161.0,
          161.0,
          161.0,
          161.0,
          161.0,
          161.0,
          161.0,
          161.0
        ],
        [
          1208.6,
          1211.7,
          1214.9,
          1217.9,
          1220.8,
          1224.0,
          1226.9,
          1229.9,
          1233.0,
          1236.0,
          1237.6,
          1239.0,
          1240.5,
          1242.1,
          1243.6,
          1245.3,
          1245.6,
          1245.8,
          1246.2,
          1246.4,
          1246.8,
          1247.0,
          1247.3,
          1247.7,
          1248.0,
          1248.2,
          1248.5,
          1248.9,
          1249.1,
          1249.6,
          1250.0,
          1250.1,
          1250.5,
          1250.8,
          1251.1,
          1251.2,
          1251.4,
          1251.7,
          1252.1,
          1252.3,
          1252.7,
          1253.1,
          1254.4,
          1256.1,
          1257.6,
          1259.1,
          1260.7,
          1262.2,
          1263.7,
          1265.2,
          1266.8,
          1268.4,
          1270.0,
          1271.5,
          1273.0,
          1274.5,
          1398.3,
          1398.6,
          1399.0,
          1399.3,
          1399.7,
          1400.0,
          1400.3,
          1400.6,
          1400.9,
          1401.3,
          1401.6,
          1401.9,
          1402.2,
          1402.5,
          1403.0,
          1403.2,
          1403.6,
          1403.8,
          1404.2,
          1404.5,
          1404.9,
          1405.2,
          1405.6,
          1405.9,
          1406.2,
          1406.5,
          1406.9,
          1407.2,
          1407.6,
          1407.8,
          1408.2,
          1408.5,
          1408.8,
          1409.2,
          1409.5,
          1409.8,
          1410.1,
          1410.5,
          1410.8,
          1411.1,
          1411.4,
          1411.8,
          1412.2,
          1412.4,
          1412.7,
          1413.1,
          1413.4,
          1413.8,
          1465.1,
          1465.5,
          1465.9,
          1466.1,
          1466.5,
          1466.9,
          1467.2,
          1467.5,
          1467.8,
          1468.2,
          1468.5,
          1468.9,
          1469.2,
          1469.5,
          1469.9,
          1470.2,
          1470.6,
          1470.9,
          1471.2,
          1471.5,
          1471.9,
          1472.2,
          1472.5,
          1472.9,
          1473.3,
          1473.6,
          1473.9,
          1474.2,
          1474.6,
          1474.9,
          1475.3,
          1475.5,
          1475.9,
          1476.2,
          1476.6,
          1476.8,
          1477.2,
          1477.5,
          1477.9,
          1478.2,
          1478.5,
          1478.8,
          1479.1,
          1479.5,
          1479.9,
          1480.2,
          1495.7,
          1497.5,
          1499.1,
          1500.9,
          1502.5,
          1504.1,
          1505.8,
          1507.5,
          1509.2,
          1510.9,
          1512.5,
          1514.3,
          1516.0,
          1517.6,
          1519.3,
          1521.0,
          1522.6,
          1524.3,
          1526.0,
          1527.6,
          1529.3,
          1531.0,
          1532.6,
          1534.3,
          1536.1,
          1549.9,
          1550.3,
          1550.6,
          1551.0,
          1551.3,
          1551.6,
          1552.0,
          1552.3,
          1552.7,
          1553.0,
          1553.4,
          1553.7,
          1554.0,
          1554.4,
          1554.7,
          1555.1,
          1555.4,
          1555.8,
          1556.1,
          1556.4,
          1556.8,
          1557.1,
          1557.5,
          1557.8,
          1558.2,
          1558.5,
          1558.9,
          1559.2,
          1559.5,
          1559.9,
          1560.2,
          1560.6,
          1560.9,
          1565.0,
          1568.4,
          1571.9,
          1575.4,
          1577.1,
          1577.5,
          1577.8,
          1578.1,
          1578.4,
          1578.9,
          1579.2,
          1579.6,
          1580.0,
          1580.2,
          1580.7,
          1580.9,
          1581.2,
          1581.8,
          1582.0,
          1582.4,
          1582.7,
          1583.0,
          1583.4,
          1583.7,
          1584.0,
          1584.5,
          1584.8,
          1585.1,
          1585.5,
          1585.7,
          1586.1,
          1586.5,
          1586.8,
          1587.2,
          1587.5,
          1589.3,
          1591.0,
          1592.7,
          1594.4,
          1596.1,
          1597.8,
          1599.6,
          1601.4,
          1603.0,
          1604.8,
          1606.5,
          1208.5,
          1211.8,
          1214.7,
          1217.8,
          1220.7,
          1223.8,
          1226.9,
          1229.9,
          1232.9,
          1236.1,
          1237.7,
          1239.1,
          1240.6,
          1242.2,
          1243.6,
          1245.3,
          1245.6,
          1245.9,
          1246.2,
          1246.4,
          1246.6,
          1247.0,
          1247.3,
          1247.5,
          1247.7,
          1248.0,
          1248.1,
          1248.5,
          1249.0,
          1249.1,
          1249.5,
          1249.7,
          1250.4,
          1250.7,
          1251.1,
          1251.4,
          1251.7,
          1252.1,
          1252.4,
          1252.8,
          1253.1,
          1254.4,
          1256.0,
          1257.5,
          1259.1,
          1260.7,
          1262.3,
          1263.7,
          1265.2,
          1266.9,
          1268.4,
          1270.0,
          1271.6,
          1273.0,
          1274.6,
          1398.3,
          1398.6,
          1399.0,
          1399.3,
          1399.6,
          1400.0,
          1400.3,
          1400.6,
          1400.9,
          1401.3,
          1401.6,
          1401.9,
          1402.2,
          1402.6,
          1402.9,
          1403.3,
          1403.7,
          1403.9,
          1404.2,
          1404.6,
          1404.9,
          1405.2,
          1405.6,
          1405.9,
          1406.1,
          1406.5,
          1406.9,
          1407.2,
          1407.5,
          1407.9,
          1408.2,
          1408.5,
          1408.8,
          1409.1,
          1409.4,
          1409.8,
          1410.1,
          1410.4,
          1410.7,
          1411.1,
          1411.4,
          1411.7,
          1412.1,
          1412.4,
          1412.7,
          1413.0,
          1413.3,
          1413.7,
          1465.1,
          1465.5,
          1465.8,
          1466.1,
          1466.5,
          1466.8,
          1467.2,
          1467.5,
          1467.8,
          1468.2,
          1468.5,
          1468.9,
          1469.2,
          1469.5,
          1469.9,
          1470.2,
          1470.5,
          1470.9,
          1471.2,
          1471.5,
          1471.9,
          1472.2,
          1472.6,
          1472.9,
          1473.3,
          1473.5,
          1473.9,
          1474.3,
          1474.6,
          1474.8,
          1475.2,
          1475.5,
          1475.9,
          1476.2,
          1476.5,
          1476.9,
          1477.3,
          1477.6,
          1477.9,
          1478.2,
          1478.5,
          1478.8,
          1479.3,
          1479.6,
          1480.0,
          1480.3,
          1495.8,
          1497.4,
          1499.1,
          1500.8,
          1502.5,
          1504.2,
          1505.9,
          1507.5,
          1509.2,
          1510.8,
          1512.5,
          1514.3,
          1515.9,
          1517.5,
          1519.2,
          1520.9,
          1522.6,
          1524.2,
          1525.9,
          1527.6,
          1529.3,
          1530.9,
          1532.6,
          1534.3,
          1535.9,
          1549.9,
          1550.3,
          1550.6,
          1551.0,
          1551.3,
          1551.6,
          1552.0,
          1552.3,
          1552.7,
          1553.0,
          1553.4,
          1553.7,
          1554.0,
          1554.4,
          1554.7,
          1555.0,
          1555.4,
          1555.7,
          1556.1,
          1556.4,
          1556.8,
          1557.1,
          1557.4,
          1557.8,
          1558.2,
          1558.5,
          1558.9,
          1559.2,
          1559.5,
          1559.9,
          1560.2,
          1560.6,
          1560.9,
          1565.0,
          1568.5,
          1571.9,
          1575.4,
          1577.1,
          1577.5,
          1577.9,
          1578.2,
          1578.5,
          1578.9,
          1579.4,
          1579.6,
          1579.9,
          1580.3,
          1580.8,
          1581.0,
          1581.3,
          1581.7,
          1582.0,
          1582.3,
          1582.7,
          1583.1,
          1583.4,
          1583.7,
          1584.0,
          1584.5,
          1584.8,
          1585.2,
          1585.5,
          1585.8,
          1586.1,
          1586.5,
          1586.8,
          1587.1,
          1587.6,
          1589.3,
          1591.0,
          1592.7,
          1594.3,
          1596.1,
          1597.7,
          1599.6,
          1601.3,
          1603.1,
          1604.7,
          1606.5,
          1208.6,
          1211.8,
          1214.7,
          1217.8,
          1220.7,
          1223.8,
          1226.9,
          1229.9,
          1233.1,
          1236.0,
          1237.5,
          1239.0,
          1240.6,
          1242.1,
          1243.5,
          1245.1,
          1245.6,
          1245.8,
          1246.2,
          1246.6,
          1247.0,
          1247.1,
          1247.3,
          1247.7,
          1248.0,
          1248.3,
          1248.5,
          1248.9,
          1249.2,
          1249.6,
          1249.8,
          1250.1,
          1250.2,
          1250.6,
          1250.8,
          1251.0,
          1251.3,
          1251.5,
          1251.7,
          1252.1,
          1252.5,
          1252.9,
          1253.0,
          1254.4,
          1256.0,
          1257.5,
          1259.0,
          1260.6,
          1262.2,
          1263.7,
          1265.3,
          1266.9,
          1268.4,
          1270.1,
          1271.5,
          1273.1,
          1274.5,
          1398.3,
          1398.6,
          1399.0,
          1399.3,
          1399.7,
          1400.0,
          1400.3,
          1400.6,
          1401.0,
          1401.3,
          1401.6,
          1401.9,
          1402.2,
          1402.6,
          1402.9,
          1403.3,
          1403.6,
          1403.9,
          1404.3,
          1404.5,
          1404.8,
          1405.2,
          1405.6,
          1405.9,
          1406.2,
          1406.5,
          1406.9,
          1407.2,
          1407.5,
          1407.8,
          1408.2,
          1408.4,
          1408.8,
          1409.1,
          1409.5,
          1409.8,
          1410.1,
          1410.4,
          1410.8,
          1411.1,
          1411.4,
          1411.7,
          1412.1,
          1412.4,
          1412.7,
          1413.0,
          1413.4,
          1413.7,
          1465.1,
          1465.5,
          1465.8,
          1466.1,
          1466.5,
          1466.9,
          1467.1,
          1467.5,
          1467.9,
          1468.2,
          1468.5,
          1468.9,
          1469.2,
          1469.5,
          1469.8,
          1470.2,
          1470.5,
          1470.9,
          1471.2,
          1471.5,
          1471.9,
          1472.2,
          1472.5,
          1472.9,
          1473.2,
          1473.6,
          1473.9,
          1474.2,
          1474.6,
          1474.9,
          1475.2,
          1475.6,
          1475.9,
          1476.2,
          1476.6,
          1476.9,
          1477.2,
          1477.5,
          1477.9,
          1478.2,
          1478.5,
          1478.8,
          1479.2,
          1479.6,
          1479.9,
          1480.2,
          1495.7,
          1497.4,
          1499.1,
          1500.7,
          1502.4,
          1504.0,
          1505.8,
          1507.5,
          1509.2,
          1510.8,
          1512.5,
          1514.1,
          1515.8,
          1517.5,
          1519.2,
          1521.0,
          1522.6,
          1524.2,
          1525.9,
          1527.5,
          1529.2,
          1530.9,
          1532.6,
          1534.3,
          1535.9,
          1549.8,
          1550.2,
          1550.6,
          1551.0,
          1551.3,
          1551.6,
          1552.0,
          1552.3,
          1552.7,
          1553.0,
          1553.3,
          1553.6,
          1554.0,
          1554.3,
          1554.7,
          1555.0,
          1555.3,
          1555.8,
          1556.1,
          1556.4,
          1556.7,
          1557.1,
          1557.4,
          1557.8,
          1558.1,
          1558.5,
          1558.8,
          1559.1,
          1559.5,
          1559.9,
          1560.2,
          1560.5,
          1560.9,
          1564.9,
          1568.4,
          1571.8,
          1575.3,
          1577.0,
          1577.4,
          1577.7,
          1578.0,
          1578.3,
          1578.7,
          1579.2,
          1579.5,
          1579.8,
          1580.2,
          1580.5,
          1580.9,
          1581.2,
          1581.6,
          1581.9,
          1582.3,
          1582.7,
          1583.0,
          1583.3,
          1583.6,
          1584.1,
          1584.4,
          1584.7,
          1585.1,
          1585.4,
          1585.8,
          1586.1,
          1586.4,
          1586.8,
          1587.1,
          1587.4,
          1589.2,
          1591.0,
          1592.6,
          1594.3,
          1596.0,
          1597.6,
          1599.6,
          1601.2,
          1603.1,
          1604.7,
          1606.5
        ],
        [
          328.2,
          328.55,
          327.86,
          320.26,
          318.87,
          320.95,
          320.61,
          310.58,
          312.31,
          308.51,
          305.4,
          302.98,
          302.28,
          295.71,
          291.21,
          283.6,
          275.99,
          270.11,
          263.88,
          260.77,
          260.08,
          235.85,
          235.51,
          220.98,
          219.94,
          219.25,
          233.09,
          247.62,
          258.35,
          273.23,
          290.88,
          302.29,
          302.29,
          311.29,
          313.02,
          314.41,
          316.83,
          316.48,
          311.29,
          313.37,
          313.02,
          317.18,
          315.45,
          317.18,
          311.99,
          311.65,
          309.92,
          308.53,
          310.27,
          308.19,
          306.12,
          305.77,
          306.81,
          301.62,
          302.66,
          300.93,
          250.33,
          248.45,
          246.89,
          246.43,
          251.27,
          247.84,
          249.24,
          250.18,
          248.62,
          254.56,
          247.06,
          247.69,
          246.6,
          240.51,
          243.79,
          242.54,
          241.14,
          245.2,
          242.7,
          240.68,
          236.15,
          235.05,
          235.06,
          237.71,
          242.72,
          248.03,
          244.44,
          251.47,
          248.97,
          244.76,
          247.42,
          246.64,
          244.14,
          246.8,
          245.86,
          246.96,
          244.46,
          238.84,
          241.96,
          248.37,
          249.31,
          252.75,
          254.47,
          252.28,
          249.32,
          249.79,
          250.88,
          246.82,
          226.76,
          224.74,
          225.98,
          222.56,
          223.65,
          225.98,
          223.18,
          224.27,
          224.27,
          225.67,
          224.73,
          224.89,
          223.33,
          221.15,
          222.08,
          225.5,
          226.75,
          226.44,
          224.57,
          223.63,
          213.83,
          209.16,
          212.73,
          213.98,
          219.89,
          225.81,
          226.74,
          228.14,
          227.05,
          226.27,
          224.87,
          226.27,
          230.31,
          226.42,
          225.49,
          226.26,
          225.48,
          223.93,
          227.04,
          222.68,
          227.04,
          232.02,
          224.23,
          225.17,
          223.76,
          226.56,
          210.99,
          215.21,
          210.19,
          211.24,
          205.68,
          204.62,
          201.71,
          200.92,
          192.19,
          185.31,
          171.3,
          162.84,
          172.62,
          180.01,
          195.87,
          199.04,
          209.34,
          207.75,
          206.96,
          207.48,
          206.42,
          210.91,
          211.44,
          208.0,
          206.94,
          206.18,
          204.61,
          204.38,
          201.69,
          202.59,
          203.37,
          204.61,
          204.72,
          202.36,
          202.25,
          202.14,
          200.9,
          203.82,
          204.05,
          199.78,
          206.41,
          208.88,
          206.41,
          210.0,
          201.01,
          197.87,
          198.88,
          204.16,
          202.48,
          205.51,
          197.08,
          201.58,
          198.77,
          200.9,
          200.9,
          200.12,
          200.79,
          202.59,
          197.57,
          202.46,
          194.46,
          194.14,
          189.19,
          193.46,
          189.2,
          190.98,
          193.11,
          188.03,
          192.65,
          193.95,
          195.02,
          186.98,
          186.39,
          190.3,
          188.41,
          188.89,
          185.7,
          181.8,
          181.09,
          181.45,
          180.63,
          180.39,
          180.63,
          180.99,
          182.42,
          180.76,
          176.75,
          178.88,
          177.46,
          181.73,
          183.74,
          183.87,
          183.04,
          188.15,
          185.21,
          190.2,
          190.81,
          192.73,
          194.4,
          193.12,
          195.28,
          194.35,
          188.21,
          193.32,
          270.55,
          271.92,
          268.84,
          267.47,
          267.47,
          265.42,
          263.71,
          260.97,
          257.21,
          251.39,
          248.99,
          240.09,
          239.4,
          236.32,
          229.47,
          209.27,
          205.16,
          194.88,
          191.8,
          187.69,
          183.58,
          166.12,
          163.03,
          157.9,
          155.5,
          163.04,
          170.91,
          192.49,
          219.54,
          229.47,
          246.94,
          266.8,
          277.42,
          283.58,
          282.21,
          285.98,
          285.64,
          280.85,
          281.87,
          280.16,
          279.48,
          273.31,
          271.26,
          270.92,
          262.7,
          262.36,
          266.47,
          259.62,
          263.04,
          256.54,
          262.36,
          257.57,
          254.49,
          258.25,
          253.46,
          205.64,
          206.73,
          210.17,
          204.71,
          206.58,
          211.43,
          206.43,
          208.62,
          207.53,
          206.44,
          209.09,
          205.97,
          204.1,
          202.23,
          203.95,
          203.95,
          203.01,
          203.01,
          201.77,
          203.64,
          193.02,
          190.52,
          191.77,
          193.96,
          201.62,
          208.65,
          210.84,
          209.6,
          211.32,
          205.54,
          210.38,
          207.88,
          210.39,
          207.73,
          207.89,
          206.49,
          203.36,
          200.55,
          207.43,
          210.71,
          213.21,
          213.21,
          208.53,
          209.78,
          206.97,
          209.32,
          208.85,
          207.44,
          189.37,
          187.96,
          188.12,
          186.87,
          186.55,
          191.39,
          186.71,
          187.02,
          185.61,
          189.05,
          187.95,
          187.48,
          185.92,
          184.51,
          187.64,
          178.57,
          190.13,
          186.69,
          185.29,
          180.6,
          176.69,
          172.32,
          172.16,
          184.03,
          190.75,
          194.66,
          193.56,
          193.87,
          192.93,
          194.65,
          191.52,
          188.87,
          190.12,
          190.9,
          189.33,
          190.58,
          186.21,
          191.99,
          187.14,
          186.36,
          184.64,
          187.61,
          186.82,
          187.76,
          186.2,
          184.48,
          175.28,
          176.84,
          173.45,
          172.14,
          167.44,
          167.44,
          161.44,
          159.09,
          153.08,
          142.12,
          126.99,
          124.64,
          136.12,
          150.2,
          167.41,
          170.8,
          174.97,
          174.19,
          177.58,
          173.14,
          178.61,
          177.05,
          174.96,
          177.3,
          174.17,
          171.38,
          172.15,
          169.28,
          171.05,
          172.15,
          173.92,
          171.27,
          169.83,
          170.93,
          169.17,
          169.28,
          172.59,
          168.94,
          169.61,
          169.16,
          170.93,
          172.04,
          173.36,
          173.8,
          171.48,
          169.27,
          167.5,
          170.71,
          168.83,
          167.17,
          172.58,
          164.74,
          170.82,
          168.83,
          164.07,
          167.94,
          168.49,
          168.27,
          162.52,
          164.43,
          158.35,
          159.09,
          159.81,
          157.34,
          155.11,
          153.94,
          159.94,
          153.24,
          153.83,
          153.6,
          152.19,
          153.96,
          151.38,
          152.79,
          150.91,
          148.56,
          152.09,
          148.22,
          147.16,
          144.46,
          146.7,
          142.7,
          144.11,
          142.94,
          143.89,
          144.01,
          144.72,
          144.6,
          144.72,
          150.49,
          151.55,
          150.73,
          152.62,
          158.4,
          160.06,
          161.38,
          162.33,
          164.35,
          164.13,
          163.21,
          166.05,
          165.24,
          161.73,
          161.51,
          206.73,
          205.39,
          204.73,
          201.39,
          199.39,
          203.43,
          196.73,
          195.4,
          189.37,
          181.99,
          182.0,
          176.64,
          168.59,
          160.54,
          147.79,
          129.01,
          120.96,
          108.21,
          104.18,
          98.813,
          92.103,
          87.405,
          88.077,
          100.83,
          127.01,
          153.85,
          191.44,
          235.06,
          250.5,
          267.28,
          280.03,
          280.71,
          282.05,
          282.05,
          278.69,
          276.01,
          268.63,
          266.62,
          265.95,
          265.28,
          261.92,
          256.55,
          251.19,
          243.14,
          231.73,
          226.37,
          220.34,
          219.67,
          217.66,
          212.97,
          206.27,
          209.63,
          210.98,
          204.27,
          203.6,
          207.64,
          200.93,
          158.74,
          159.22,
          160.81,
          156.36,
          161.13,
          156.21,
          157.32,
          157.96,
          157.64,
          157.64,
          160.34,
          162.41,
          164.47,
          159.71,
          161.94,
          158.29,
          156.7,
          153.69,
          147.81,
          150.2,
          145.91,
          138.45,
          143.06,
          156.55,
          168.78,
          168.94,
          167.99,
          168.94,
          164.81,
          162.28,
          160.53,
          159.58,
          160.37,
          160.38,
          161.96,
          162.44,
          159.43,
          157.68,
          162.92,
          165.62,
          163.88,
          164.36,
          162.61,
          164.52,
          162.14,
          161.19,
          165.32,
          160.4,
          144.28,
          146.82,
          142.53,
          145.55,
          145.23,
          143.0,
          146.18,
          144.43,
          140.78,
          145.7,
          145.54,
          144.74,
          142.36,
          142.36,
          146.33,
          142.84,
          141.72,
          142.83,
          136.48,
          134.26,
          130.77,
          127.59,
          132.83,
          155.05,
          159.65,
          162.19,
          158.38,
          160.13,
          156.32,
          152.98,
          152.03,
          146.79,
          147.1,
          147.1,
          147.1,
          143.93,
          149.01,
          146.15,
          147.26,
          143.29,
          148.21,
          146.94,
          145.03,
          144.55,
          144.71,
          145.03,
          154.8,
          155.61,
          149.15,
          147.94,
          137.85,
          133.01,
          128.16,
          114.85,
          105.17,
          87.022,
          72.502,
          76.126,
          108.38,
          137.41,
          166.84,
          174.5,
          177.72,
          182.55,
          175.29,
          174.88,
          168.43,
          177.29,
          172.85,
          169.22,
          165.59,
          135.0,
          134.67,
          138.15,
          134.13,
          135.11,
          136.63,
          135.65,
          134.45,
          134.67,
          134.78,
          135.1,
          133.58,
          133.15,
          134.02,
          133.8,
          133.91,
          137.06,
          140.21,
          141.3,
          135.86,
          133.36,
          132.6,
          130.54,
          129.56,
          129.23,
          129.99,
          131.08,
          131.08,
          130.86,
          129.34,
          127.92,
          129.99,
          131.08,
          119.54,
          122.29,
          118.54,
          116.57,
          114.22,
          112.93,
          111.16,
          110.1,
          110.46,
          109.64,
          110.23,
          110.0,
          108.82,
          106.11,
          107.29,
          106.23,
          103.76,
          109.78,
          114.98,
          113.45,
          112.04,
          103.3,
          103.42,
          100.12,
          99.886,
          100.24,
          101.19,
          101.67,
          100.61,
          105.81,
          106.99,
          110.42,
          113.5,
          116.33,
          119.64,
          127.46,
          133.74,
          132.81,
          131.76,
          135.09,
          134.51,
          129.93,
          134.08,
          126.06,
          123.24,
          129.64
        ],
        [
          7.6125,
          7.6125,
          7.2664,
          6.9204,
          6.2284,
          6.9204,
          6.5743,
          6.9203,
          6.9204,
          5.8824,
          6.9204,
          6.5744,
          7.2664,
          6.9204,
          6.9204,
          7.9584,
          5.5363,
          5.1902,
          6.5744,
          5.1903,
          7.2664,
          5.8824,
          5.1903,
          5.5364,
          5.8824,
          5.1903,
          7.6125,
          8.3045,
          7.2664,
          6.9204,
          9.6886,
          6.9204,
          7.6125,
          5.8824,
          7.9585,
          6.2284,
          5.5363,
          7.2664,
          7.2664,
          7.9585,
          7.2664,
          7.6125,
          8.3045,
          7.2664,
          7.6125,
          7.9585,
          7.2664,
          8.6505,
          6.9204,
          7.2664,
          7.9585,
          7.6124,
          7.9585,
          7.6125,
          7.9585,
          7.9585,
          5.1324,
          5.2152,
          5.1562,
          4.6875,
          5.1763,
          5.1824,
          4.8437,
          4.0625,
          4.2561,
          4.8328,
          5.3622,
          4.8541,
          5.3125,
          5.1725,
          4.8723,
          5.3125,
          5.4537,
          5.4826,
          5.1749,
          4.8437,
          3.9062,
          5.2853,
          5.3247,
          6.5624,
          5.3125,
          5.6128,
          5.4687,
          7.0312,
          4.8132,
          5.4687,
          4.5431,
          5.3925,
          5.2945,
          5.6345,
          5.3815,
          5.6543,
          5.3248,
          5.7812,
          5.3927,
          5.3846,
          4.4251,
          5.7123,
          5.3124,
          5.6249,
          5.5671,
          5.3892,
          4.4875,
          5.2753,
          5.2918,
          5.9144,
          4.358,
          5.6031,
          4.8249,
          4.6693,
          4.9745,
          4.9628,
          5.4425,
          4.9805,
          5.4265,
          5.2918,
          5.4372,
          5.2843,
          4.6572,
          4.9806,
          4.8314,
          4.9384,
          4.9671,
          5.7587,
          4.6129,
          4.5837,
          5.623,
          4.8358,
          5.4162,
          5.1362,
          5.2918,
          4.8351,
          4.8475,
          4.9348,
          4.8165,
          4.8532,
          5.4621,
          5.4178,
          5.1362,
          4.8531,
          5.2918,
          5.1362,
          5.2918,
          5.1473,
          5.6031,
          5.1594,
          4.6285,
          5.6031,
          4.8532,
          5.6129,
          2.6432,
          2.9075,
          2.1145,
          2.6128,
          2.5637,
          2.5842,
          2.3789,
          2.6183,
          2.9149,
          2.3789,
          2.1253,
          2.1348,
          2.9129,
          2.1371,
          2.8941,
          2.7943,
          2.8671,
          2.6125,
          2.6283,
          2.8763,
          2.7941,
          2.5864,
          3.4568,
          3.3947,
          2.6865,
          2.9213,
          3.1461,
          2.8912,
          2.9145,
          2.9081,
          2.6547,
          3.1348,
          2.6966,
          2.9162,
          2.6946,
          2.9349,
          3.0347,
          3.1523,
          3.0241,
          3.0258,
          2.8732,
          2.8052,
          2.7941,
          2.8135,
          2.9348,
          3.1386,
          2.8521,
          2.5843,
          2.7851,
          3.0293,
          3.1483,
          3.0472,
          2.9157,
          3.1573,
          3.0432,
          2.8152,
          2.6837,
          2.7241,
          2.7218,
          1.0651,
          2.9132,
          2.8975,
          2.3668,
          2.6953,
          2.9278,
          2.6035,
          3.0768,
          2.6123,
          2.7863,
          3.0694,
          2.6127,
          2.4852,
          2.9348,
          2.9561,
          3.3135,
          3.4319,
          2.8756,
          2.8401,
          2.4851,
          3.1952,
          3.0693,
          3.1952,
          3.0757,
          3.0531,
          2.7143,
          2.4638,
          3.0691,
          3.1847,
          3.0684,
          2.6817,
          2.9136,
          3.0685,
          2.6842,
          3.1952,
          2.7941,
          3.0698,
          2.8317,
          2.7218,
          3.3135,
          2.9362,
          2.9273,
          3.0693,
          2.5964,
          2.6981,
          6.8493,
          7.1918,
          5.4795,
          6.5069,
          5.8219,
          6.1644,
          5.4795,
          6.5069,
          7.1918,
          4.7945,
          6.1644,
          5.8219,
          5.8219,
          5.137,
          5.1369,
          6.1644,
          5.8219,
          6.1644,
          5.137,
          3.4247,
          4.7945,
          5.137,
          4.7945,
          4.4521,
          4.4521,
          5.137,
          5.8219,
          5.8219,
          6.5069,
          4.4521,
          6.1644,
          6.1644,
          6.1644,
          4.1096,
          4.4521,
          5.8219,
          6.5069,
          7.5342,
          4.7945,
          6.5069,
          6.1644,
          5.8219,
          4.7945,
          6.1644,
          5.8219,
          5.8219,
          5.4794,
          5.4794,
          5.4795,
          5.4795,
          6.1644,
          6.5069,
          5.8219,
          6.1644,
          6.5068,
          4.2187,
          4.1625,
          4.2532,
          4.1625,
          4.5312,
          3.5937,
          4.2842,
          4.3641,
          4.4127,
          4.3845,
          4.3215,
          4.3245,
          4.7832,
          4.4621,
          4.3342,
          4.2639,
          4.6875,
          4.2583,
          4.3463,
          4.5247,
          4.3945,
          4.4362,
          4.3546,
          4.4681,
          4.3923,
          5.1267,
          4.2188,
          3.9062,
          4.2367,
          4.2381,
          4.356,
          4.4892,
          4.3761,
          4.5312,
          4.1935,
          4.5313,
          4.6915,
          4.6521,
          4.2718,
          4.2934,
          4.3163,
          3.9062,
          2.9153,
          4.4371,
          4.5248,
          4.3967,
          4.4157,
          4.6248,
          4.0625,
          4.2188,
          3.5938,
          3.9062,
          4.5642,
          3.9136,
          4.5312,
          4.375,
          4.0817,
          4.2317,
          4.0738,
          3.75,
          4.2356,
          4.3623,
          4.3571,
          4.2437,
          4.3692,
          3.9148,
          4.5312,
          4.2435,
          3.125,
          4.375,
          3.9265,
          4.2347,
          4.6731,
          4.0589,
          4.0496,
          4.3863,
          4.5459,
          4.2248,
          4.0541,
          4.2397,
          3.9247,
          4.2541,
          4.3648,
          4.0782,
          4.2576,
          4.5435,
          4.364,
          4.8327,
          4.5639,
          4.0735,
          4.5158,
          4.2439,
          4.5641,
          4.2537,
          2.6087,
          3.1304,
          2.8696,
          3.3913,
          3.1321,
          2.6347,
          3.6128,
          2.3478,
          2.5983,
          2.8117,
          2.6129,
          2.5943,
          2.3721,
          2.5846,
          2.5794,
          3.1293,
          2.8347,
          3.5674,
          3.2146,
          2.6457,
          3.2164,
          2.7845,
          2.5961,
          2.7945,
          3.1162,
          2.5414,
          2.6519,
          2.4309,
          2.3205,
          2.3124,
          2.6431,
          2.2905,
          2.3843,
          2.4251,
          2.4952,
          2.3148,
          2.21,
          2.4918,
          2.0925,
          2.2148,
          2.2356,
          2.3109,
          2.3462,
          2.5123,
          2.5048,
          2.4309,
          1.989,
          2.4155,
          2.4284,
          2.5329,
          2.5612,
          2.3047,
          2.0879,
          2.9834,
          2.3152,
          2.3046,
          2.5248,
          2.3456,
          2.9412,
          2.8235,
          2.8913,
          2.7059,
          2.353,
          2.4706,
          2.3428,
          2.4706,
          2.3621,
          2.4936,
          2.4863,
          2.4951,
          2.7982,
          2.4965,
          3.1765,
          2.4706,
          2.9412,
          2.8143,
          2.5362,
          2.7912,
          2.1176,
          2.2353,
          2.8048,
          2.4706,
          2.3529,
          2.4531,
          2.3875,
          2.1304,
          2.4986,
          2.2145,
          2.2071,
          2.3984,
          2.7059,
          2.353,
          2.6904,
          2.8035,
          2.7863,
          2.2012,
          2.9321,
          2.4982,
          2.6945,
          2.4321,
          2.6984,
          2.5437,
          2.8451,
          2.2734,
          8.0537,
          8.0537,
          8.0537,
          8.0537,
          7.3826,
          8.7248,
          8.7248,
          9.396,
          6.0403,
          5.3691,
          8.0537,
          7.3826,
          6.7114,
          6.0403,
          7.3826,
          6.7114,
          6.7114,
          7.3826,
          6.0403,
          6.0403,
          3.3557,
          6.0403,
          6.7114,
          6.7114,
          8.7248,
          7.3826,
          10.067,
          9.396,
          5.3691,
          8.0537,
          9.3957,
          7.3826,
          6.0403,
          7.3825,
          4.698,
          4.698,
          6.7114,
          4.0268,
          7.3825,
          6.7114,
          5.3691,
          8.7248,
          6.0403,
          7.3826,
          7.3826,
          8.7248,
          7.3826,
          5.3691,
          4.698,
          7.3826,
          8.7248,
          8.0537,
          6.7114,
          10.738,
          9.396,
          8.0537,
          8.7248,
          2.8482,
          2.7367,
          2.5397,
          3.2154,
          3.1415,
          3.1746,
          3.1159,
          2.6578,
          2.6381,
          2.8247,
          2.8472,
          2.8365,
          2.5579,
          2.8535,
          2.6858,
          2.7284,
          2.6346,
          2.5284,
          2.4826,
          3.4136,
          2.6542,
          3.4921,
          3.5149,
          2.6984,
          2.8246,
          3.3159,
          3.1748,
          2.6984,
          2.5632,
          3.4159,
          2.5367,
          3.1746,
          2.5725,
          2.5849,
          2.5781,
          2.381,
          2.8327,
          3.3162,
          2.5483,
          2.5648,
          3.3162,
          2.6984,
          3.4128,
          3.1746,
          2.7349,
          3.2846,
          3.3241,
          3.2917,
          3.1746,
          3.3251,
          2.8571,
          3.492,
          3.1683,
          3.0159,
          3.4853,
          3.0238,
          2.6984,
          3.6508,
          3.0265,
          3.1831,
          3.1593,
          3.3148,
          3.3085,
          2.8439,
          3.1698,
          3.4692,
          3.1803,
          3.169,
          3.4854,
          3.0216,
          2.8351,
          3.0329,
          3.1803,
          2.6984,
          3.4921,
          2.8492,
          2.6984,
          3.3149,
          3.3257,
          3.1492,
          2.835,
          3.4846,
          3.6491,
          3.1582,
          3.8136,
          3.516,
          3.1684,
          3.4831,
          3.4639,
          3.3219,
          3.1495,
          3.027,
          3.1598,
          3.2941,
          5.2419,
          4.1352,
          4.0561,
          4.0297,
          4.0417,
          3.2148,
          3.6135,
          3.2176,
          3.5943,
          2.8148,
          2.4193,
          2.8172,
          2.8318,
          4.0412,
          3.1285,
          4.0459,
          4.4157,
          4.4244,
          4.0291,
          4.0462,
          3.6125,
          3.5931,
          4.1263,
          4.0563,
          4.4217,
          2.2826,
          1.7961,
          1.8456,
          1.8347,
          1.9565,
          2.1739,
          1.7941,
          1.7865,
          1.8153,
          1.5217,
          1.7452,
          1.6985,
          1.9238,
          1.7689,
          2.3913,
          1.6971,
          1.8258,
          1.414,
          1.4264,
          1.7945,
          1.8673,
          1.8378,
          1.7581,
          1.8137,
          1.7649,
          1.9366,
          1.7852,
          1.7561,
          1.8123,
          1.8268,
          1.7945,
          1.6128,
          1.6981,
          2.3621,
          2.1365,
          2.0561,
          1.8568,
          1.7139,
          1.8597,
          2.0691,
          1.5145,
          2.0284,
          1.7124,
          1.6962,
          1.4173,
          1.6535,
          2.0148,
          2.1259,
          1.5354,
          1.2432,
          1.4068,
          1.4871,
          1.2748,
          1.2837,
          1.1824,
          1.063,
          1.4954,
          1.7516,
          1.4231,
          1.1723,
          1.1689,
          1.1578,
          1.2145,
          1.0584,
          2.0126,
          1.5147,
          1.5973,
          1.5741,
          2.1271,
          1.7368,
          1.6942,
          1.7912,
          2.1251,
          1.8134,
          1.7562,
          1.5973,
          1.7416,
          2.0137,
          1.8456
        ]
      ]
    }
  },
  "F1006-003": {
    "reaction": {
      "0": {
        "x4_code": "(15-P-31(P,EL)15-P-31,,DA)",
        "0": {
          "code": [
            "15-P-31",
            [
              "P,EL"
            ],
            "15-P-31,,DA"
          ],
          "type": null,
          "target": "15-P-31",
          "process": "P,EL",
          "sf49": "15-P-31,,DA",
          "sf4": "15-P-31",
          "sf5": null,
          "sf6": "DA",
          "sf7": null,
          "sf8": null,
          "sf9": null
        },
        "type": null,
        "free_text": ""
      }
    },
    "extra_information": {
      "detector": {
        "0": [
          {
            "x4_code": "(SIBAR)",
            "free_txt": [
              " Three surface-barrier detectors were used."
            ]
          }
        ]
      },
      "sample": {
        "0": [
          {
            "x4_code": null,
            "free_txt": [
              "The targets were prepared by phosphorus evaporation in",
              "vacuum onto carbon backing with the thickness of 15",
              "mu-g/cm2. The targets (2.1+-0.1 mu-g/cm2 thickness)",
              "were placed at the center of the reaction chamber 50 cm",
              "in diameter."
            ]
          }
        ]
      },
      "status": {
        "0": [
          {
            "x4_code": "(CURVE)",
            "free_txt": [
              " Fig.7"
            ]
          }
        ]
      }
    },
    "common": {
      "heads": [
        "EN-ERR-DIG",
        "ERR-DIG"
      ],
      "units": [
        "KEV",
        "MB/SR"
      ],
      "data": [
        [
          0.041
        ],
        [
          0.118
        ]
      ]
    },
    "data": {
      "heads": [
        "ANG-CM",
        "EN",
        "DATA-CM",
        "DATA-ERR"
      ],
      "units": [
        "ADEG",
        "KEV",
        "MB/SR",
        "MB/SR"
      ],
      "data": [
        [
          126.0,
          126.0,
          126.0,
          126.0,
          126.0,
          126.0,
          126.0,
          126.0,
          126.0,
          126.0,
          126.0,
          126.0,
          126.0,
          126.0,
          126.0,
          126.0,
          126.0,
          126.0,
          126.0,
          126.0,
          126.0,
          126.0,
          126.0,
          126.0,
          126.0,
          141.0,
          141.0,
          141.0,
          141.0,
          141.0,
          141.0,
          141.0,
          141.0,
          141.0,
          141.0,
          141.0,
          141.0,
          141.0,
          141.0,
          141.0,
          141.0,
          141.0,
          141.0,
          141.0,
          141.0,
          141.0,
          141.0,
          161.0,
          161.0,
          161.0,
          161.0,
          161.0,
          161.0,
          161.0,
          161.0,
          161.0,
          161.0,
          161.0,
          161.0,
          161.0,
          161.0,
          161.0,
          161.0,
          161.0,
          161.0,
          161.0,
          161.0,
          161.0,
          161.0,
          161.0,
          161.0,
          161.0
        ],
        [
          1432.3,
          1432.6,
          1433.0,
          1433.3,
          1433.6,
          1434.0,
          1434.3,
          1434.6,
          1435.0,
          1435.3,
          1435.7,
          1436.0,
          1436.3,
          1436.7,
          1437.0,
          1437.3,
          1437.7,
          1438.0,
          1438.3,
          1438.7,
          1439.0,
          1439.3,
          1439.7,
          1440.0,
          1440.4,
          1433.6,
          1433.9,
          1434.3,
          1434.6,
          1435.0,
          1435.3,
          1435.7,
          1436.0,
          1436.3,
          1436.6,
          1437.0,
          1437.3,
          1437.6,
          1438.0,
          1438.3,
          1438.7,
          1439.0,
          1439.3,
          1439.7,
          1440.0,
          1440.3,
          1440.7,
          1432.2,
          1432.5,
          1432.9,
          1433.2,
          1433.6,
          1433.9,
          1434.2,
          1434.6,
          1434.9,
          1435.2,
          1435.6,
          1435.9,
          1436.3,
          1436.6,
          1436.9,
          1437.3,
          1437.6,
          1437.9,
          1438.3,
          1438.6,
          1439.0,
          1439.3,
          1439.6,
          1439.9,
          1440.3
        ],
        [
          235.77,
          235.55,
          239.25,
          238.8,
          233.48,
          247.59,
          241.12,
          243.67,
          239.52,
          240.45,
          239.06,
          236.76,
          234.91,
          235.61,
          232.84,
          227.53,
          222.22,
          225.69,
          235.18,
          225.24,
          226.86,
          229.18,
          232.65,
          225.03,
          234.28,
          192.26,
          192.49,
          187.16,
          187.82,
          188.72,
          190.05,
          184.72,
          186.28,
          184.95,
          184.95,
          185.84,
          191.85,
          197.41,
          191.19,
          187.86,
          184.08,
          184.53,
          182.75,
          186.53,
          185.2,
          183.43,
          180.99,
          154.31,
          159.98,
          160.21,
          153.65,
          155.69,
          159.99,
          163.17,
          160.68,
          159.1,
          164.77,
          160.02,
          154.36,
          157.08,
          155.96,
          164.34,
          182.68,
          202.38,
          177.03,
          166.17,
          155.53,
          156.67,
          150.11,
          152.15,
          153.28,
          153.52
        ],
        [
          5.5493,
          5.7805,
          5.0729,
          4.8516,
          4.6231,
          4.8536,
          5.3181,
          3.9308,
          4.6318,
          4.3932,
          5.3181,
          4.8457,
          4.3932,
          5.5132,
          4.8327,
          4.6156,
          4.8172,
          5.0261,
          4.6543,
          4.3562,
          5.0685,
          4.3248,
          4.3845,
          4.162,
          3.9426,
          3.1235,
          2.6317,
          3.1356,
          2.8259,
          3.1428,
          2.6457,
          2.6413,
          3.1562,
          2.4625,
          2.6317,
          3.1529,
          2.6246,
          2.3514,
          3.3564,
          2.8142,
          3.1639,
          2.6251,
          2.8327,
          3.1452,
          3.1648,
          3.5421,
          2.8513,
          3.6142,
          3.849,
          3.1698,
          3.3712,
          3.3843,
          3.1356,
          3.3542,
          3.6546,
          3.3891,
          2.9425,
          3.1738,
          2.4906,
          2.9318,
          2.9519,
          3.1743,
          2.9135,
          3.8617,
          3.3872,
          2.9563,
          2.9274,
          3.3841,
          3.3563,
          3.1842,
          2.9148,
          3.3783
        ]
      ]
    }
  },
  "F1006-004": {
    "reaction": {
      "0": {
        "x4_code": "(15-P-31(P,A)14-SI-28,PAR,DA,,REL)",
        "0": {
          "code": [
            "15-P-31",
            [
              "P,A"
            ],
            "14-SI-28,PAR,DA,,REL"
          ],
          "type": null,
          "target": "15-P-31",
          "process": "P,A",
          "sf49": "14-SI-28,PAR,DA,,REL",
          "sf4": "14-SI-28",
          "sf5": "PAR",
          "sf6": "DA",
          "sf7": null,
          "sf8": "REL",
          "sf9": null
        },
        "type": null,
        "free_text": ""
      }
    },
    "extra_information": {
      "detector": {
        "0": [
          {
            "x4_code": "(SIBAR)",
            "free_txt": [
              " Three surface-barrier detectors were used."
            ]
          }
        ]
      },
      "sample": {
        "0": [
          {
            "x4_code": null,
            "free_txt": [
              "The targets were prepared by phosphorus evaporation in",
              "vacuum onto carbon backing with the thickness of 15",
              "mu-g/cm2. The targets (9.0+-0.3 mu-g/cm2 thickness)",
              "were placed at the center of the reaction chamber 50 cm",
              "in diameter."
            ]
          }
        ]
      },
      "status": {
        "0": [
          {
            "x4_code": "(CURVE)",
            "free_txt": [
              " Fig.3,8,9"
            ]
          }
        ]
      }
    },
    "common": {
      "heads": [
        "E-LVL",
        "EN-ERR-DIG",
        "ERR-DIG"
      ],
      "units": [
        "MEV",
        "KEV",
        "ARB-UNITS"
      ],
      "data": [
        [
          0.0
        ],
        [
          0.012
        ],
        [
          0.775
        ]
      ]
    },
    "data": {
      "heads": [
        "ANG",
        "EN",
        "DATA",
        "DATA-ERR"
      ],
      "units": [
        "ADEG",
        "KEV",
        "ARB-UNITS",
        "ARB-UNITS"
      ],
      "data": [
        [
          124.0,
          124.0,
          124.0,
          124.0,
          124.0,
          124.0,
          124.0,
          124.0,
          124.0,
          124.0,
          124.0,
          124.0,
          124.0,
          124.0,
          124.0,
          124.0,
          124.0,
          124.0,
          124.0,
          124.0,
          124.0,
          124.0,
          124.0,
          124.0,
          124.0,
          124.0,
          160.0,
          160.0,
          160.0,
          160.0,
          160.0,
          160.0,
          160.0,
          160.0,
          160.0,
          160.0,
          160.0,
          160.0,
          160.0,
          160.0,
          160.0,
          160.0,
          160.0,
          160.0,
          160.0,
          160.0,
          160.0,
          160.0,
          160.0,
          160.0,
          160.0,
          160.0,
          160.0,
          160.0,
          160.0,
          160.0,
          160.0,
          160.0,
          160.0,
          160.0,
          160.0,
          160.0,
          160.0,
          160.0,
          160.0,
          160.0,
          160.0,
          160.0,
          160.0,
          160.0,
          160.0,
          160.0,
          160.0,
          160.0,
          160.0,
          160.0,
          160.0,
          160.0,
          160.0,
          160.0,
          160.0,
          160.0,
          160.0,
          160.0,
          160.0,
          160.0,
          160.0,
          160.0,
          160.0,
          160.0,
          160.0,
          160.0,
          160.0,
          160.0,
          160.0,
          160.0,
          160.0,
          160.0,
          160.0,
          160.0,
          160.0,
          160.0,
          160.0,
          160.0,
          160.0,
          160.0,
          160.0,
          160.0,
          160.0,
          160.0,
          160.0,
          160.0,
          160.0,
          160.0,
          160.0,
          160.0,
          160.0,
          160.0,
          160.0,
          160.0,
          160.0,
          160.0
        ],
        [
          1495.7,
          1497.4,
          1499.2,
          1500.6,
          1502.3,
          1504.0,
          1505.8,
          1507.4,
          1509.0,
          1510.7,
          1512.4,
          1514.2,
          1515.8,
          1517.5,
          1519.1,
          1520.8,
          1522.5,
          1524.0,
          1525.8,
          1527.5,
          1529.0,
          1530.8,
          1532.4,
          1534.0,
          1535.6,
          1540.0,
          1398.3,
          1398.6,
          1398.9,
          1399.3,
          1399.6,
          1400.0,
          1400.3,
          1400.6,
          1400.9,
          1401.3,
          1401.6,
          1401.9,
          1402.2,
          1402.5,
          1402.9,
          1403.2,
          1403.5,
          1403.9,
          1404.2,
          1404.5,
          1404.8,
          1405.1,
          1405.5,
          1405.8,
          1406.2,
          1406.5,
          1406.8,
          1407.2,
          1407.5,
          1407.8,
          1408.1,
          1408.4,
          1408.6,
          1408.9,
          1409.2,
          1409.5,
          1409.7,
          1410.1,
          1410.4,
          1410.7,
          1411.0,
          1411.4,
          1411.7,
          1412.0,
          1412.3,
          1412.5,
          1412.9,
          1413.2,
          1413.6,
          1465.1,
          1465.5,
          1465.9,
          1466.2,
          1466.5,
          1466.9,
          1467.2,
          1467.5,
          1467.8,
          1468.2,
          1468.5,
          1468.8,
          1469.2,
          1469.5,
          1469.9,
          1470.2,
          1470.5,
          1470.9,
          1471.2,
          1471.5,
          1471.8,
          1472.2,
          1472.5,
          1472.8,
          1473.2,
          1473.6,
          1473.9,
          1474.2,
          1474.5,
          1474.9,
          1475.2,
          1475.5,
          1475.5,
          1475.9,
          1476.2,
          1476.5,
          1476.9,
          1477.2,
          1477.5,
          1477.9,
          1478.3,
          1478.5,
          1478.8,
          1479.2,
          1479.5,
          1479.8,
          1480.2
        ],
        [
          1.1083,
          1.4347,
          1.6304,
          1.6955,
          2.0873,
          2.7405,
          3.6552,
          4.962,
          7.5761,
          12.086,
          18.098,
          23.719,
          23.457,
          19.862,
          11.299,
          8.554,
          5.2203,
          3.9128,
          3.0628,
          2.2781,
          2.1471,
          1.5585,
          1.362,
          1.1003,
          1.296,
          0.90293,
          1.4501,
          1.4334,
          4.5647,
          2.9733,
          2.9534,
          1.3619,
          2.9184,
          4.4782,
          1.3103,
          1.2937,
          1.2754,
          68.029,
          439.7,
          447.59,
          395.64,
          269.67,
          101.19,
          85.456,
          44.528,
          46.12,
          25.662,
          20.955,
          17.823,
          14.692,
          13.134,
          3.7019,
          2.1437,
          0.98588,
          2.5424,
          0.9543,
          2.5141,
          4.0739,
          4.0589,
          2.4708,
          2.4575,
          4.0157,
          4.0024,
          2.411,
          2.3943,
          3.9525,
          2.361,
          2.3427,
          2.3278,
          3.8843,
          2.2962,
          2.2812,
          2.2645,
          2.2446,
          2.2263,
          0.043791,
          4.6907,
          1.5213,
          6.2578,
          4.6695,
          4.6622,
          7.8176,
          10.973,
          15.709,
          6.2167,
          40.991,
          93.159,
          254.42,
          303.42,
          271.79,
          123.17,
          121.58,
          83.63,
          42.517,
          29.862,
          15.626,
          18.781,
          18.774,
          6.1192,
          2.9492,
          1.3608,
          9.2594,
          53.521,
          127.82,
          371.29,
          336.5,
          257.45,
          271.68,
          176.81,
          132.53,
          47.149,
          37.655,
          21.838,
          26.574,
          13.919,
          4.4248,
          13.906,
          15.48,
          4.4049,
          2.8179,
          4.3916,
          1.2216
        ],
        [
          0.45752,
          0.39216,
          0.43278,
          0.42413,
          0.51348,
          0.54283,
          0.44891,
          0.56193,
          0.65359,
          1.0458,
          1.3725,
          1.5033,
          1.7647,
          1.634,
          1.1765,
          0.76581,
          0.57612,
          0.76749,
          0.64573,
          0.51365,
          0.36831,
          0.37915,
          0.29816,
          0.28792,
          0.30567,
          0.27984,
          null,
          null,
          null,
          null,
          null,
          null,
          null,
          null,
          null,
          null,
          null,
          null,
          14.173,
          15.748,
          15.835,
          14.173,
          7.6951,
          7.8542,
          9.4587,
          null,
          null,
          null,
          null,
          null,
          null,
          null,
          null,
          null,
          null,
          null,
          null,
          null,
          null,
          null,
          null,
          null,
          null,
          null,
          null,
          null,
          null,
          null,
          null,
          null,
          null,
          null,
          null,
          null,
          null,
          null,
          null,
          null,
          null,
          null,
          null,
          null,
          null,
          null,
          null,
          null,
          11.067,
          20.553,
          12.648,
          14.229,
          9.4561,
          11.145,
          9.4328,
          null,
          null,
          null,
          null,
          null,
          null,
          null,
          null,
          null,
          null,
          12.584,
          14.137,
          15.81,
          null,
          null,
          17.391,
          9.4182,
          null,
          null,
          null,
          null,
          null,
          null,
          null,
          null,
          null,
          null,
          null,
          null
        ]
      ]
    }
  },
  "F1006-005": {
    "reaction": {
      "0": {
        "x4_code": "(15-P-31(P,G)16-S-32,,MLT,,REL)",
        "0": {
          "code": [
            "15-P-31",
            [
              "P,G"
            ],
            "16-S-32,,MLT,,REL"
          ],
          "type": null,
          "target": "15-P-31",
          "process": "P,G",
          "sf49": "16-S-32,,MLT,,REL",
          "sf4": "16-S-32",
          "sf5": null,
          "sf6": "MLT",
          "sf7": null,
          "sf8": "REL",
          "sf9": null
        },
        "type": null,
        "free_text": ""
      }
    },
    "extra_information": {
      "detector": {
        "0": [
          {
            "x4_code": "(NAICR)",
            "free_txt": [
              " The NaI(Tl) detectors 12.7 cm x 12.7 cm and",
              "3.8 cm x 3.8 cm were used for gamma rays measurements."
            ]
          },
          {
            "x4_code": "(GELI)",
            "free_txt": []
          }
        ]
      },
      "method": {
        "0": [
          {
            "x4_code": "(GSPEC)",
            "free_txt": []
          }
        ]
      },
      "sample": {
        "0": [
          {
            "x4_code": null,
            "free_txt": [
              "The targets were prepared by phosphorus evaporation in",
              "vacuum onto tangsten backing. Target thickness was",
              "11 and 23 mu-g/cm2 for the energies Ep<1.4 MeV and",
              "Ep>1.4 MeV, respectively."
            ]
          }
        ]
      },
      "status": {
        "0": [
          {
            "x4_code": "(CURVE)",
            "free_txt": [
              " Fig.2,3,7,8,10,11"
            ]
          }
        ]
      }
    },
    "common": {
      "heads": [
        "EN-ERR-DIG",
        "ERR-DIG"
      ],
      "units": [
        "KEV",
        "ARB-UNITS"
      ],
      "data": [
        [
          0.099
        ],
        [
          3.959
        ]
      ]
    },
    "data": {
      "heads": [
        "EN",
        "DATA",
        "DATA-ERR"
      ],
      "units": [
        "KEV",
        "ARB-UNITS",
        "ARB-UNITS"
      ],
      "data": [
        [
          1209.5,
          1212.5,
          1215.6,
          1218.4,
          1221.3,
          1224.4,
          1227.6,
          1230.5,
          1233.7,
          1236.4,
          1237.8,
          1239.4,
          1241.0,
          1242.4,
          1243.8,
          1245.3,
          1246.2,
          1246.4,
          1246.8,
          1247.1,
          1247.3,
          1247.6,
          1247.9,
          1248.1,
          1248.4,
          1248.8,
          1249.0,
          1249.4,
          1249.6,
          1250.0,
          1250.3,
          1250.6,
          1250.9,
          1251.2,
          1251.5,
          1251.8,
          1252.0,
          1252.8,
          1253.0,
          1254.6,
          1256.1,
          1257.6,
          1259.2,
          1260.8,
          1262.2,
          1263.9,
          1265.3,
          1266.9,
          1268.5,
          1270.2,
          1271.5,
          1273.0,
          1274.6,
          1398.3,
          1398.6,
          1398.9,
          1399.3,
          1399.6,
          1399.9,
          1400.3,
          1400.6,
          1401.0,
          1401.3,
          1401.6,
          1401.9,
          1402.2,
          1402.6,
          1402.8,
          1403.2,
          1403.6,
          1403.9,
          1404.2,
          1404.5,
          1404.8,
          1405.0,
          1405.4,
          1405.8,
          1406.2,
          1406.5,
          1406.8,
          1407.2,
          1407.5,
          1407.8,
          1408.1,
          1408.4,
          1408.6,
          1409.0,
          1409.2,
          1409.4,
          1409.7,
          1409.9,
          1410.3,
          1410.6,
          1410.9,
          1411.3,
          1411.7,
          1411.9,
          1412.2,
          1412.5,
          1412.9,
          1413.3,
          1413.7,
          1432.2,
          1432.5,
          1432.8,
          1433.2,
          1433.4,
          1433.8,
          1434.2,
          1434.5,
          1434.8,
          1435.2,
          1435.5,
          1435.8,
          1436.2,
          1436.5,
          1436.8,
          1437.2,
          1437.5,
          1437.9,
          1438.2,
          1438.5,
          1438.9,
          1439.2,
          1439.6,
          1439.9,
          1440.2,
          1465.1,
          1465.5,
          1465.9,
          1466.1,
          1466.5,
          1466.8,
          1467.2,
          1467.5,
          1467.9,
          1468.2,
          1468.5,
          1468.8,
          1469.2,
          1469.5,
          1469.8,
          1470.2,
          1470.5,
          1470.8,
          1471.2,
          1471.5,
          1471.8,
          1472.1,
          1472.5,
          1472.8,
          1473.2,
          1473.5,
          1473.8,
          1474.2,
          1474.5,
          1474.8,
          1475.2,
          1475.5,
          1475.8,
          1476.2,
          1476.4,
          1476.8,
          1477.2,
          1477.4,
          1477.8,
          1478.2,
          1478.4,
          1478.8,
          1479.1,
          1479.4,
          1479.8,
          1480.1,
          1549.9,
          1550.3,
          1550.3,
          1550.6,
          1551.0,
          1551.4,
          1551.6,
          1552.0,
          1552.3,
          1552.7,
          1553.0,
          1553.3,
          1553.6,
          1554.0,
          1554.3,
          1554.6,
          1555.0,
          1555.3,
          1555.6,
          1556.0,
          1556.3,
          1556.7,
          1557.1,
          1557.4,
          1557.8,
          1558.2,
          1558.5,
          1558.7,
          1559.1,
          1559.6,
          1559.8,
          1560.2,
          1560.6,
          1560.9,
          1564.6,
          1568.1,
          1571.5,
          1575.0,
          1576.7,
          1577.1,
          1577.5,
          1577.8,
          1578.0,
          1578.4,
          1579.0,
          1579.5,
          1579.8,
          1580.2,
          1580.6,
          1581.0,
          1581.3,
          1581.8,
          1582.1,
          1582.5,
          1583.1,
          1583.4,
          1583.8,
          1584.1,
          1584.4,
          1584.7,
          1585.1,
          1585.5,
          1585.8,
          1586.2,
          1586.5,
          1587.0,
          1587.3,
          1588.9,
          1590.6,
          1592.3,
          1594.0,
          1595.7,
          1597.3,
          1599.3,
          1600.9,
          1602.7,
          1604.4,
          1606.1
        ],
        [
          99.275,
          121.08,
          92.855,
          118.09,
          116.63,
          111.74,
          93.479,
          102.02,
          100.42,
          89.034,
          101.65,
          110.87,
          103.39,
          102.68,
          115.29,
          124.55,
          180.79,
          213.98,
          283.8,
          316.99,
          453.52,
          513.34,
          719.86,
          843.06,
          796.27,
          836.06,
          769.27,
          705.78,
          642.33,
          478.83,
          372.01,
          395.21,
          291.73,
          251.57,
          264.76,
          234.63,
          191.17,
          167.47,
          154.04,
          123.2,
          102.45,
          111.7,
          97.56,
          93.446,
          96.066,
          111.88,
          101.14,
          73.695,
          82.879,
          82.03,
          74.686,
          83.972,
          73.125,
          73.622,
          88.919,
          101.07,
          147.81,
          285.86,
          323.24,
          322.75,
          240.44,
          164.29,
          148.14,
          109.87,
          238.56,
          685.41,
          688.02,
          615.25,
          403.75,
          239.43,
          210.65,
          144.04,
          137.38,
          146.34,
          123.98,
          151.79,
          163.8,
          131.82,
          118.78,
          112.08,
          95.803,
          92.252,
          98.103,
          85.106,
          78.318,
          87.452,
          71.217,
          64.607,
          92.633,
          89.082,
          139.15,
          226.82,
          242.12,
          244.82,
          187.65,
          171.37,
          120.68,
          95.046,
          75.797,
          87.811,
          87.276,
          83.547,
          147.21,
          121.67,
          168.93,
          170.7,
          195.27,
          174.24,
          141.89,
          166.46,
          195.43,
          179.02,
          173.97,
          178.02,
          179.75,
          174.78,
          365.16,
          689.69,
          1023.3,
          536.32,
          456.25,
          276.23,
          200.67,
          177.44,
          154.18,
          160.53,
          182.8,
          89.006,
          74.652,
          93.623,
          68.172,
          103.02,
          80.737,
          75.9,
          72.663,
          75.768,
          89.989,
          81.997,
          93.038,
          126.3,
          116.71,
          122.99,
          105.46,
          97.466,
          89.468,
          89.398,
          116.32,
          141.64,
          306.65,
          379.59,
          328.74,
          265.18,
          200.03,
          176.17,
          136.42,
          153.82,
          180.73,
          164.79,
          147.27,
          134.51,
          121.74,
          124.87,
          110.51,
          132.65,
          115.14,
          115.07,
          91.19,
          97.488,
          95.832,
          119.58,
          105.22,
          86.108,
          119.37,
          135.07,
          126.18,
          108.78,
          139.17,
          176.02,
          162.82,
          160.53,
          110.28,
          103.63,
          127.45,
          138.23,
          120.67,
          129.27,
          137.85,
          146.42,
          161.56,
          239.85,
          834.49,
          1117.6,
          1256.9,
          1228.5,
          1071.4,
          676.95,
          448.06,
          280.15,
          234.28,
          192.76,
          197.02,
          162.01,
          179.26,
          170.45,
          163.77,
          176.7,
          146.08,
          71.741,
          40.099,
          27.272,
          55.06,
          35.505,
          33.563,
          31.622,
          36.709,
          34.658,
          37.42,
          47.648,
          33.919,
          41.44,
          46.582,
          82.765,
          168.91,
          545.46,
          1038.8,
          884.42,
          703.86,
          245.08,
          145.48,
          131.69,
          101.09,
          89.521,
          77.952,
          71.252,
          71.634,
          57.741,
          46.282,
          51.424,
          80.468,
          52.244,
          46.911,
          46.556,
          41.278,
          36.109,
          40.348,
          39.774,
          63.486,
          46.311,
          41.197,
          43.057,
          66.496
        ],
        [
          null,
          19.996,
          null,
          null,
          null,
          null,
          null,
          null,
          null,
          13.33,
          null,
          null,
          null,
          19.962,
          null,
          null,
          null,
          null,
          null,
          16.663,
          13.33,
          9.9979,
          null,
          16.663,
          19.996,
          null,
          null,
          null,
          19.996,
          13.33,
          13.33,
          19.996,
          null,
          null,
          19.996,
          null,
          10.032,
          null,
          null,
          null,
          null,
          null,
          null,
          null,
          null,
          null,
          null,
          13.364,
          null,
          null,
          null,
          null,
          null,
          15.699,
          15.788,
          18.892,
          25.19,
          21.996,
          18.937,
          18.848,
          18.892,
          22.041,
          15.788,
          18.937,
          22.041,
          15.743,
          31.442,
          28.383,
          31.487,
          18.803,
          25.19,
          15.743,
          25.234,
          15.743,
          18.848,
          18.937,
          12.639,
          21.996,
          18.892,
          15.788,
          15.743,
          12.595,
          9.4461,
          12.595,
          12.55,
          12.639,
          9.4461,
          12.595,
          12.595,
          15.743,
          18.937,
          12.639,
          9.4461,
          12.55,
          15.743,
          21.952,
          18.937,
          9.4907,
          15.833,
          12.55,
          12.595,
          12.55,
          18.102,
          13.634,
          13.634,
          13.596,
          13.673,
          15.945,
          15.907,
          13.673,
          11.362,
          13.596,
          11.362,
          9.128,
          13.634,
          13.634,
          22.762,
          36.397,
          34.086,
          27.269,
          24.958,
          20.451,
          15.907,
          18.141,
          11.362,
          13.557,
          18.141,
          6.3486,
          4.7614,
          7.9231,
          6.3549,
          11.11,
          6.3549,
          6.3486,
          6.3486,
          4.7614,
          3.1806,
          6.3486,
          6.3486,
          6.3486,
          4.7551,
          3.1743,
          3.1743,
          6.3486,
          6.3486,
          6.3486,
          6.3549,
          7.9357,
          11.11,
          9.5291,
          11.11,
          9.5229,
          9.5166,
          7.9294,
          7.9357,
          9.5229,
          6.3486,
          4.7614,
          6.3549,
          6.3486,
          4.7614,
          6.3549,
          9.5291,
          6.3486,
          6.3423,
          6.3549,
          6.3486,
          6.3486,
          4.7677,
          9.5292,
          6.3486,
          6.3486,
          6.3549,
          null,
          null,
          null,
          null,
          null,
          null,
          null,
          null,
          null,
          null,
          10.893,
          null,
          null,
          null,
          null,
          null,
          null,
          19.608,
          32.679,
          26.144,
          30.509,
          32.679,
          21.786,
          26.152,
          null,
          null,
          null,
          null,
          null,
          null,
          null,
          null,
          null,
          null,
          30.987,
          19.035,
          11.897,
          14.276,
          14.276,
          14.331,
          14.276,
          19.035,
          14.331,
          11.897,
          9.4628,
          9.4628,
          14.222,
          11.897,
          4.704,
          42.883,
          47.642,
          40.504,
          35.691,
          28.552,
          23.794,
          19.09,
          19.09,
          21.414,
          19.09,
          16.656,
          9.5722,
          16.601,
          14.331,
          11.897,
          14.222,
          19.035,
          9.5722,
          14.222,
          9.5175,
          11.842,
          23.794,
          11.897,
          9.5722,
          11.952,
          18.98,
          14.276,
          14.276,
          14.276
        ]
      ]
    }
  }
}