{
  "entry": "23241",
  "last_updated": "2018-01-22",
  "number_of_revisions": "2",
  "histories": [
    {
      "x4_code": "(20150521C)",
      "free_txt": [
        " M.M."
      ]
    },
    {
      "x4_code": "(20170510A)",
      "free_txt": [
        " M.M.",
        "Refs. C,76CORSICA,,304,1976=R,CERN-76-13,304,1976 ,",
        "J,NP/A,293,410,1977, P,MAINZ-75,55,1976 ere added.",
        "Subents 10-14 were added."
      ]
    }
  ],
  "bib_record": {
    "title": "Investigation of beta strength functions by neutron and gamma-ray spectroscopy (I). The decay of 87-Br, 137-I, 85-As, 135-Sb.",
    "authors": [
      {
        "name": "K.-L.Kratz"
      },
      {
        "name": "W.Rudolph"
      },
      {
        "name": "H.Ohm"
      },
      {
        "name": "H.Franz"
      },
      {
        "name": "M.Zendel"
      },
      {
        "name": "G.Herrmann"
      },
      {
        "name": "S.G.Prussin"
      },
      {
        "name": "F.M.Nuh"
      },
      {
        "name": "A.A.Shihab-Eldin"
      },
      {
        "name": "D.R.Slaughter"
      },
      {
        "name": "W.Halverson"
      },
      {
        "name": "H.V.Klapdor"
      }
    ],
    "institutes": [
      {
        "x4_code": "(2GERMNZ)",
        "free_txt": [
          " K.-L.Kratz,W.Rudolph,H.Ohm,H.Franz,M.Zendel,",
          "          G.Herrmann."
        ]
      },
      {
        "x4_code": "(1USAUCX)",
        "free_txt": [
          " S.G.Prussin,F.M.Nuh,A.A.Shihab-Eldin,",
          "D.R.Slaughter,W.Halverson ."
        ]
      },
      {
        "x4_code": "(2GERMPH)",
        "free_txt": [
          " H.V.Klapdor."
        ]
      }
    ],
    "references": [
      {
        "x4_code": "(J,NP/A,317,335,1979)",
        "free_txt": [
          "Br-87,I-137,As-85,Sb-135 delayed neutron spectra."
        ],
        "publication_year": "1979",
        "pointer": "0"
      },
      {
        "x4_code": "(J,NIM,144,253,1977)",
        "free_txt": [
          " First author H.Franz.",
          "I-137 delayed neutron spectrum - Fig.9;",
          "details of experiment and analysis."
        ],
        "publication_year": "1977",
        "pointer": "0"
      },
      {
        "x4_code": "(J,NP/A,293,410,1977)",
        "free_txt": [
          " First author F.M.Nuh .",
          " Br-87(55sec) neutron spectrum - Fig.2"
        ],
        "publication_year": "1977",
        "pointer": "0"
      },
      {
        "x4_code": "((C,76CORSICA,,304,1976)=(R,CERN-76-13,304,1976))",
        "free_txt": [
          "First author K.-L.Kratz .",
          "Br-87 (55sec), As-85 (2.05sec), I-137 (24sec),",
          "Sb-135 (17sec) beta delayed spectra on figures."
        ],
        "publication_year": "1976",
        "pointer": "0"
      },
      {
        "x4_code": "(P,MAINZ-75,55,1976)",
        "free_txt": [
          " First author H.Ohm . In German .",
          " I-137, -138"
        ],
        "publication_year": "1976",
        "pointer": "0"
      },
      {
        "x4_code": "(J,PRL,33,859,1974)",
        "free_txt": [
          " First author H.Franz.",
          "Delayed neutron spectra for",
          "As-85 (Fig.1; 90 separations),",
          "Sb-135(Fig.2; 210 separations).",
          "Initial publication."
        ],
        "publication_year": "1974",
        "pointer": "0"
      }
    ],
    "facilities": [
      {
        "x4_code": "(REAC,2GERMNZ)",
        "free_txt": [
          " Mainz TRIGA reactor."
        ],
        "pointer": "0",
        "facility_type": "(REAC)",
        "institute": "(2GERMNZ)"
      }
    ]
  },
  "reactions": {
    "002": {
      "0": {
        "x4_code": "(53-I-137(0,B-)54-XE-137,,PN/DE,,REL)",
        "children": [
          {
            "code": [
              "53-I-137",
              [
                "0,B-"
              ],
              "54-XE-137,,PN/DE,,REL"
            ],
            "type": null,
            "target": "53-I-137",
            "process": "0,B-",
            "sf49": "54-XE-137,,PN/DE,,REL",
            "sf4": "54-XE-137",
            "sf5": null,
            "sf6": "PN/DE",
            "sf7": null,
            "sf8": "REL",
            "sf9": null
          }
        ],
        "type": null,
        "free_text": " Relative beta- delayed neutrons spectrum in arb.units."
      }
    },
    "003": {
      "0": {
        "x4_code": "(35-BR-87(0,B-)36-KR-87,,PN/DE,,REL)",
        "children": [
          {
            "code": [
              "35-BR-87",
              [
                "0,B-"
              ],
              "36-KR-87,,PN/DE,,REL"
            ],
            "type": null,
            "target": "35-BR-87",
            "process": "0,B-",
            "sf49": "36-KR-87,,PN/DE,,REL",
            "sf4": "36-KR-87",
            "sf5": null,
            "sf6": "PN/DE",
            "sf7": null,
            "sf8": "REL",
            "sf9": null
          }
        ],
        "type": null,
        "free_text": " Relative beta- delayed neutrons spectrum in arb.units."
      }
    },
    "004": {
      "0": {
        "x4_code": "(33-AS-85(0,B-)34-SE-85,,PN/DE,,REL)",
        "children": [
          {
            "code": [
              "33-AS-85",
              [
                "0,B-"
              ],
              "34-SE-85,,PN/DE,,REL"
            ],
            "type": null,
            "target": "33-AS-85",
            "process": "0,B-",
            "sf49": "34-SE-85,,PN/DE,,REL",
            "sf4": "34-SE-85",
            "sf5": null,
            "sf6": "PN/DE",
            "sf7": null,
            "sf8": "REL",
            "sf9": null
          }
        ],
        "type": null,
        "free_text": " Relative beta- delayed neutrons spectrum in arb.units."
      }
    },
    "005": {
      "0": {
        "x4_code": "(51-SB-135(0,B-)52-TE-135,,PN/DE,,REL)",
        "children": [
          {
            "code": [
              "51-SB-135",
              [
                "0,B-"
              ],
              "52-TE-135,,PN/DE,,REL"
            ],
            "type": null,
            "target": "51-SB-135",
            "process": "0,B-",
            "sf49": "52-TE-135,,PN/DE,,REL",
            "sf4": "52-TE-135",
            "sf5": null,
            "sf6": "PN/DE",
            "sf7": null,
            "sf8": "REL",
            "sf9": null
          }
        ],
        "type": null,
        "free_text": " Relative beta- delayed neutrons spectrum in arb.units."
      }
    },
    "006": {
      "0": {
        "x4_code": "((33-AS-85(0,B-)34-SE-85,PAR,PN)//(33-AS-85(0,B-)34-SE-85,PAR,PN))",
        "children": [
          {
            "code": [
              "33-AS-85",
              [
                "0,B-"
              ],
              "34-SE-85,PAR,PN"
            ],
            "type": null,
            "target": "33-AS-85",
            "process": "0,B-",
            "sf49": "34-SE-85,PAR,PN",
            "sf4": "34-SE-85",
            "sf5": "PAR",
            "sf6": "PN",
            "sf7": null,
            "sf8": null,
            "sf9": null
          },
          {
            "code": [
              "33-AS-85",
              [
                "0,B-"
              ],
              "34-SE-85,PAR,PN"
            ],
            "type": null,
            "target": "33-AS-85",
            "process": "0,B-",
            "sf49": "34-SE-85,PAR,PN",
            "sf4": "34-SE-85",
            "sf5": "PAR",
            "sf6": "PN",
            "sf7": null,
            "sf8": null,
            "sf9": null
          }
        ],
        "type": "//",
        "free_text": "Neutron intensity relative to 501.keV transition takenas 100. in Table 3.DATA and DATA-MAX were divided by 100. by compiler toobtain NO-DIM units ."
      }
    },
    "007": {
      "0": {
        "x4_code": "((51-SB-135(0,B-)52-TE-135,PAR,PN)//(51-SB-135(0,B-)52-TE-135,PAR,PN))",
        "children": [
          {
            "code": [
              "51-SB-135",
              [
                "0,B-"
              ],
              "52-TE-135,PAR,PN"
            ],
            "type": null,
            "target": "51-SB-135",
            "process": "0,B-",
            "sf49": "52-TE-135,PAR,PN",
            "sf4": "52-TE-135",
            "sf5": "PAR",
            "sf6": "PN",
            "sf7": null,
            "sf8": null,
            "sf9": null
          },
          {
            "code": [
              "51-SB-135",
              [
                "0,B-"
              ],
              "52-TE-135,PAR,PN"
            ],
            "type": null,
            "target": "51-SB-135",
            "process": "0,B-",
            "sf49": "52-TE-135,PAR,PN",
            "sf4": "52-TE-135",
            "sf5": "PAR",
            "sf6": "PN",
            "sf7": null,
            "sf8": null,
            "sf9": null
          }
        ],
        "type": "//",
        "free_text": "Neutron intensity relative to 1458.keV transition takenas 100. in Table 4.DATA and DATA-MAX were divided by 100. by compiler toobtain NO-DIM units ."
      }
    },
    "008": {
      "0": {
        "x4_code": "((33-AS-85(0,B-)34-SE-85,PAR,PN)/(33-AS-85(0,B-)34-SE-85,,PN))",
        "children": [
          {
            "code": [
              "33-AS-85",
              [
                "0,B-"
              ],
              "34-SE-85,PAR,PN"
            ],
            "type": null,
            "target": "33-AS-85",
            "process": "0,B-",
            "sf49": "34-SE-85,PAR,PN",
            "sf4": "34-SE-85",
            "sf5": "PAR",
            "sf6": "PN",
            "sf7": null,
            "sf8": null,
            "sf9": null
          },
          {
            "code": [
              "33-AS-85",
              [
                "0,B-"
              ],
              "34-SE-85,,PN"
            ],
            "type": null,
            "target": "33-AS-85",
            "process": "0,B-",
            "sf49": "34-SE-85,,PN",
            "sf4": "34-SE-85",
            "sf5": null,
            "sf6": "PN",
            "sf7": null,
            "sf8": null,
            "sf9": null
          }
        ],
        "type": "/",
        "free_text": "Neutron intensities to excited states in final Se-84in percents in Table 2.DATA and DATA-ERR were divided by 100. by compiler toobtain NO-DIM units."
      }
    },
    "009": {
      "0": {
        "x4_code": "((51-SB-135(0,B-)52-TE-135,PAR,PN)/(51-SB-135(0,B-)52-TE-135,,PN))",
        "children": [
          {
            "code": [
              "51-SB-135",
              [
                "0,B-"
              ],
              "52-TE-135,PAR,PN"
            ],
            "type": null,
            "target": "51-SB-135",
            "process": "0,B-",
            "sf49": "52-TE-135,PAR,PN",
            "sf4": "52-TE-135",
            "sf5": "PAR",
            "sf6": "PN",
            "sf7": null,
            "sf8": null,
            "sf9": null
          },
          {
            "code": [
              "51-SB-135",
              [
                "0,B-"
              ],
              "52-TE-135,,PN"
            ],
            "type": null,
            "target": "51-SB-135",
            "process": "0,B-",
            "sf49": "52-TE-135,,PN",
            "sf4": "52-TE-135",
            "sf5": null,
            "sf6": "PN",
            "sf7": null,
            "sf8": null,
            "sf9": null
          }
        ],
        "type": "/",
        "free_text": "Neutron intensities to excited states in final Te-134in percents in Table 2.DATA and DATA-ERR were divided by 100. by compiler toobtain NO-DIM units."
      }
    },
    "010": {
      "0": {
        "x4_code": "((35-BR-87(0,B-)36-KR-87,PAR,PN)//(35-BR-87(0,B-)36-KR-87,PAR,PN))",
        "children": [
          {
            "code": [
              "35-BR-87",
              [
                "0,B-"
              ],
              "36-KR-87,PAR,PN"
            ],
            "type": null,
            "target": "35-BR-87",
            "process": "0,B-",
            "sf49": "36-KR-87,PAR,PN",
            "sf4": "36-KR-87",
            "sf5": "PAR",
            "sf6": "PN",
            "sf7": null,
            "sf8": null,
            "sf9": null
          },
          {
            "code": [
              "35-BR-87",
              [
                "0,B-"
              ],
              "36-KR-87,PAR,PN"
            ],
            "type": null,
            "target": "35-BR-87",
            "process": "0,B-",
            "sf49": "36-KR-87,PAR,PN",
            "sf4": "36-KR-87",
            "sf5": "PAR",
            "sf6": "PN",
            "sf7": null,
            "sf8": null,
            "sf9": null
          }
        ],
        "type": "//",
        "free_text": "Relative intensities of lines in beta- delayed neutronspectrum, relative to 18.0 keV neutron intensity takenas 100. in Table 1; divided by 100. by compiler toobtain NO-DIM units."
      }
    },
    "011": {
      "0": {
        "x4_code": "(35-BR-87(0,B-)36-KR-87,PAR,PN)",
        "children": [
          {
            "code": [
              "35-BR-87",
              [
                "0,B-"
              ],
              "36-KR-87,PAR,PN"
            ],
            "type": null,
            "target": "35-BR-87",
            "process": "0,B-",
            "sf49": "36-KR-87,PAR,PN",
            "sf4": "36-KR-87",
            "sf5": "PAR",
            "sf6": "PN",
            "sf7": null,
            "sf8": null,
            "sf9": null
          }
        ],
        "type": null,
        "free_text": " Absolute neutron intensities are given in Table 1 inunints percent/decay; normalized to Pn=2.3 % ,divided by 100.% by compiler to obtain NO-DIM units."
      }
    },
    "012": {
      "0": {
        "x4_code": "((53-I-137(0,B-)54-XE-137,PAR,PN)//(53-I-137(0,B-)54-XE-137,PAR,PN))",
        "children": [
          {
            "code": [
              "53-I-137",
              [
                "0,B-"
              ],
              "54-XE-137,PAR,PN"
            ],
            "type": null,
            "target": "53-I-137",
            "process": "0,B-",
            "sf49": "54-XE-137,PAR,PN",
            "sf4": "54-XE-137",
            "sf5": "PAR",
            "sf6": "PN",
            "sf7": null,
            "sf8": null,
            "sf9": null
          },
          {
            "code": [
              "53-I-137",
              [
                "0,B-"
              ],
              "54-XE-137,PAR,PN"
            ],
            "type": null,
            "target": "53-I-137",
            "process": "0,B-",
            "sf49": "54-XE-137,PAR,PN",
            "sf4": "54-XE-137",
            "sf5": "PAR",
            "sf6": "PN",
            "sf7": null,
            "sf8": null,
            "sf9": null
          }
        ],
        "type": "//",
        "free_text": " Relative intensities of beta- delayed neutrons inspectrum of I-137, relative to 371.6 keV taken as 100.;divided by 100. by compilers to obtain NO-DIM units"
      }
    },
    "013": {
      "0": {
        "x4_code": "(53-I-138(0,B-)54-XE-138,,PN/DE,,REL)",
        "children": [
          {
            "code": [
              "53-I-138",
              [
                "0,B-"
              ],
              "54-XE-138,,PN/DE,,REL"
            ],
            "type": null,
            "target": "53-I-138",
            "process": "0,B-",
            "sf49": "54-XE-138,,PN/DE,,REL",
            "sf4": "54-XE-138",
            "sf5": null,
            "sf6": "PN/DE",
            "sf7": null,
            "sf8": "REL",
            "sf9": null
          }
        ],
        "type": null,
        "free_text": " Relative beta-delayed neutron spectrum of I-138, counts per channel ( 8.00 keV )"
      }
    }
  },
  "data_tables": {
    "001": {
      "common": null
    },
    "002": {
      "common": {
        "heads": [
          "E-ERR-DIG",
          "ERR-DIG"
        ],
        "units": [
          "KEV",
          "ARB-UNITS"
        ],
        "data": [
          [
            3.13
          ],
          [
            4.27
          ]
        ]
      },
      "data": {
        "heads": [
          "E-MIN",
          "E-MAX",
          "DATA"
        ],
        "units": [
          "KEV",
          "KEV",
          "ARB-UNITS"
        ],
        "data": [
          [
            -28.79,
            -28.78,
            -11.17,
            -5.49,
            -2.32,
            0.24,
            6.56,
            14.12,
            21.04,
            29.84,
            36.77,
            43.08,
            50.01,
            53.8,
            58.88,
            61.49,
            66.66,
            70.57,
            75.07,
            79.42,
            83.66,
            87.28,
            90.31,
            94.66,
            98.41,
            104.06,
            107.85,
            111.65,
            126.12,
            129.28,
            134.3,
            138.08,
            141.25,
            145.68,
            149.48,
            157.02,
            160.76,
            165.76,
            169.5,
            173.26,
            177.02,
            182.66,
            188.3,
            193.95,
            199.6,
            205.27,
            209.68,
            214.74,
            221.06,
            224.87,
            229.29,
            236.23,
            238.82,
            242.69,
            247.25,
            250.57,
            254.47,
            257.7,
            264.0,
            267.7,
            270.1,
            274.97,
            277.98,
            280.38,
            284.7,
            289.06,
            296.01,
            304.26,
            306.86,
            310.1,
            315.2,
            319.61,
            322.69,
            325.12,
            330.14,
            333.9,
            338.28,
            340.83,
            346.52,
            350.4,
            352.49,
            357.19,
            362.01,
            366.73,
            372.99,
            377.74,
            381.24,
            384.84,
            388.47,
            393.95,
            397.61,
            404.56,
            412.74,
            417.05,
            420.08,
            426.27,
            429.38,
            433.75,
            438.13,
            445.71,
            449.6,
            458.49,
            461.15,
            466.99,
            471.5,
            477.79,
            482.1,
            488.38,
            493.46,
            499.12,
            502.86,
            506.57,
            510.23,
            513.25,
            519.98,
            524.84,
            529.19,
            534.17,
            537.93,
            541.14,
            541.9,
            550.19,
            557.14,
            562.17,
            564.75,
            569.23,
            577.99,
            581.58,
            585.21,
            588.88,
            592.6,
            596.33,
            601.31,
            604.4,
            608.68,
            614.88,
            619.9,
            625.56,
            631.83,
            637.48,
            641.26,
            645.03,
            651.29,
            658.83,
            663.88,
            666.42,
            672.12,
            675.92,
            680.95,
            684.68,
            687.15,
            692.13,
            699.05,
            702.87,
            706.06,
            711.1,
            714.27,
            719.34,
            722.53,
            727.0,
            730.88,
            734.72,
            740.96,
            743.99,
            750.21,
            756.46,
            759.58,
            763.31,
            770.81,
            774.53,
            777.58,
            783.83,
            793.89,
            813.38,
            817.83,
            821.7,
            826.23,
            830.14,
            834.67,
            836.64,
            839.22,
            843.64,
            846.67,
            849.66,
            855.15,
            858.15,
            862.46,
            864.91,
            869.91,
            873.03,
            876.77,
            881.13,
            886.12,
            890.51,
            894.28,
            903.08,
            910.02,
            911.93,
            917.61,
            920.77,
            922.69,
            926.5,
            929.06,
            932.88,
            936.69,
            942.97,
            945.45,
            951.7,
            954.82,
            958.54,
            961.01,
            966.01,
            969.14,
            974.77,
            987.95,
            994.81,
            1001.05,
            1004.8,
            1007.3,
            1010.4,
            1016.65,
            1019.2,
            1024.9,
            1029.3,
            1032.5,
            1036.35,
            1040.7,
            1044.45,
            1049.4,
            1051.25,
            1055.05,
            1061.3,
            1065.05,
            1071.3,
            1076.35,
            1078.3,
            1086.4,
            1096.45,
            1100.3,
            1105.3,
            1110.4,
            1114.15,
            1117.35,
            1119.9,
            1122.45,
            1128.15,
            1132.55,
            1139.5,
            1145.05,
            1151.2,
            1154.95,
            1160.0,
            1162.5,
            1168.75,
            1178.8,
            1183.85,
            1191.95,
            1194.45,
            1200.05,
            1203.2,
            1208.2,
            1211.95,
            1218.25,
            1225.75,
            1230.1,
            1234.5,
            1240.2,
            1245.2,
            1250.2,
            1254.6,
            1259.6,
            1264.65,
            1276.55,
            1284.1,
            1291.65,
            1300.45,
            1308.0,
            1314.3,
            1318.0,
            1324.3,
            1330.6,
            1333.15,
            1338.8,
            1341.95,
            1345.05,
            1350.7,
            1355.75,
            1371.45,
            1377.7,
            1382.7,
            1390.25,
            1393.4,
            1396.5,
            1407.15,
            1412.2,
            1424.8,
            1430.4,
            1434.2,
            1443.0,
            1449.25,
            1454.95,
            1461.2,
            1467.5,
            1471.85,
            1487.6,
            1493.2,
            1500.75,
            1506.4,
            1515.8,
            1524.0,
            1529.65,
            1531.5,
            1546.6,
            1556.0,
            1576.1,
            1608.8,
            1626.95,
            1635.15,
            1643.3,
            1677.85
          ],
          [
            -28.78,
            -11.17,
            -5.49,
            -2.32,
            0.24,
            6.56,
            14.12,
            21.04,
            29.84,
            36.77,
            43.08,
            50.01,
            53.8,
            58.88,
            61.49,
            66.66,
            70.57,
            75.07,
            79.42,
            83.66,
            87.28,
            90.31,
            94.66,
            98.41,
            104.06,
            107.85,
            111.65,
            126.12,
            129.28,
            134.3,
            138.08,
            141.25,
            145.68,
            149.48,
            157.02,
            160.76,
            165.76,
            169.5,
            173.26,
            177.02,
            182.66,
            188.3,
            193.95,
            199.6,
            205.27,
            209.68,
            214.74,
            221.06,
            224.87,
            229.29,
            236.23,
            238.82,
            242.69,
            247.25,
            250.57,
            254.47,
            257.7,
            264.0,
            267.7,
            270.1,
            274.97,
            277.98,
            280.38,
            284.7,
            289.06,
            296.01,
            304.26,
            306.86,
            310.1,
            315.2,
            319.61,
            322.69,
            325.12,
            330.14,
            333.9,
            338.28,
            340.83,
            346.52,
            350.4,
            352.49,
            357.19,
            362.01,
            366.73,
            372.99,
            377.74,
            381.24,
            384.84,
            388.47,
            393.95,
            397.61,
            404.56,
            412.74,
            417.05,
            420.08,
            426.27,
            429.38,
            433.75,
            438.13,
            445.71,
            449.6,
            458.49,
            461.15,
            466.99,
            471.5,
            477.79,
            482.1,
            488.38,
            493.46,
            499.12,
            502.86,
            506.57,
            510.23,
            513.25,
            519.98,
            524.84,
            529.19,
            534.17,
            537.93,
            541.14,
            541.9,
            550.19,
            557.14,
            562.17,
            564.75,
            569.23,
            577.99,
            581.58,
            585.21,
            588.88,
            592.6,
            596.33,
            601.31,
            604.4,
            608.68,
            614.88,
            619.9,
            625.56,
            631.83,
            637.48,
            641.26,
            645.03,
            651.29,
            658.83,
            663.88,
            666.42,
            672.12,
            675.92,
            680.95,
            684.68,
            687.15,
            692.13,
            699.05,
            702.87,
            706.06,
            711.1,
            714.27,
            719.34,
            722.53,
            727.0,
            730.88,
            734.72,
            740.96,
            743.99,
            750.21,
            756.46,
            759.58,
            763.31,
            770.81,
            774.53,
            777.58,
            783.83,
            793.89,
            813.38,
            817.83,
            821.7,
            826.23,
            830.14,
            834.67,
            836.64,
            839.22,
            843.64,
            846.67,
            849.66,
            855.15,
            858.15,
            862.46,
            864.91,
            869.91,
            873.03,
            876.77,
            881.13,
            886.12,
            890.51,
            894.28,
            903.08,
            910.02,
            911.93,
            917.61,
            920.77,
            922.69,
            926.5,
            929.06,
            932.88,
            936.69,
            942.97,
            945.45,
            951.7,
            954.82,
            958.54,
            961.01,
            966.01,
            969.14,
            974.77,
            987.95,
            994.81,
            1001.05,
            1004.8,
            1007.3,
            1010.4,
            1016.65,
            1019.2,
            1024.9,
            1029.3,
            1032.5,
            1036.35,
            1040.7,
            1044.45,
            1049.4,
            1051.25,
            1055.05,
            1061.3,
            1065.05,
            1071.3,
            1076.35,
            1078.3,
            1086.4,
            1096.45,
            1100.3,
            1105.3,
            1110.4,
            1114.15,
            1117.35,
            1119.9,
            1122.45,
            1128.15,
            1132.55,
            1139.5,
            1145.05,
            1151.2,
            1154.95,
            1160.0,
            1162.5,
            1168.75,
            1178.8,
            1183.85,
            1191.95,
            1194.45,
            1200.05,
            1203.2,
            1208.2,
            1211.95,
            1218.25,
            1225.75,
            1230.1,
            1234.5,
            1240.2,
            1245.2,
            1250.2,
            1254.6,
            1259.6,
            1264.65,
            1276.55,
            1284.1,
            1291.65,
            1300.45,
            1308.0,
            1314.3,
            1318.0,
            1324.3,
            1330.6,
            1333.15,
            1338.8,
            1341.95,
            1345.05,
            1350.7,
            1355.75,
            1371.45,
            1377.7,
            1382.7,
            1390.25,
            1393.4,
            1396.5,
            1407.15,
            1412.2,
            1424.8,
            1430.4,
            1434.2,
            1443.0,
            1449.25,
            1454.95,
            1461.2,
            1467.5,
            1471.85,
            1487.6,
            1493.2,
            1500.75,
            1506.4,
            1515.8,
            1524.0,
            1529.65,
            1531.5,
            1546.6,
            1556.0,
            1576.1,
            1608.8,
            1626.95,
            1635.15,
            1643.3,
            1677.85,
            1725.0
          ],
          [
            13.73,
            22.29,
            55.83,
            71.43,
            105.78,
            148.7,
            171.32,
            182.23,
            190.8,
            200.15,
            226.68,
            246.96,
            261.0,
            289.09,
            349.18,
            463.12,
            589.55,
            718.32,
            752.66,
            641.82,
            491.18,
            371.76,
            312.44,
            292.14,
            270.28,
            287.44,
            307.72,
            329.56,
            349.06,
            359.2,
            348.26,
            375.58,
            405.22,
            435.66,
            458.28,
            437.98,
            412.21,
            385.67,
            371.61,
            359.9,
            349.75,
            342.71,
            336.46,
            323.96,
            331.75,
            355.94,
            368.42,
            403.53,
            440.99,
            472.2,
            487.79,
            530.72,
            607.2,
            714.9,
            884.26,
            1027.1,
            1107.5,
            1181.6,
            1140.25,
            1062.95,
            943.53,
            799.13,
            709.37,
            611.03,
            565.75,
            552.47,
            636.75,
            699.18,
            782.69,
            874.78,
            909.89,
            896.61,
            804.51,
            766.26,
            784.2,
            752.98,
            767.02,
            806.04,
            831.78,
            1005.05,
            1177.5,
            1529.5,
            1911.95,
            2092.2,
            1874.45,
            1608.3,
            1410.1,
            1325.8,
            1168.1,
            1022.95,
            983.11,
            1080.65,
            1025.2,
            923.76,
            824.63,
            784.81,
            755.15,
            745.78,
            720.79,
            818.34,
            929.94,
            974.41,
            1189.05,
            1299.1,
            1388.05,
            1311.55,
            1247.55,
            1310.0,
            1336.5,
            1320.9,
            1285.0,
            1215.5,
            1100.8,
            1010.2,
            781.52,
            737.03,
            703.46,
            651.16,
            687.05,
            779.15,
            903.24,
            994.54,
            978.92,
            1010.9,
            1079.55,
            1163.1,
            1018.7,
            864.93,
            763.46,
            710.38,
            671.34,
            632.31,
            607.33,
            535.52,
            409.07,
            382.52,
            411.39,
            397.33,
            384.83,
            397.32,
            410.57,
            398.08,
            371.53,
            393.37,
            413.66,
            447.99,
            489.35,
            507.29,
            489.33,
            442.5,
            413.62,
            382.38,
            421.4,
            472.91,
            493.97,
            513.48,
            547.81,
            572.78,
            635.21,
            709.35,
            821.73,
            844.36,
            737.42,
            650.78,
            627.35,
            608.61,
            585.98,
            541.48,
            528.2,
            446.24,
            374.43,
            390.8,
            405.6,
            423.53,
            487.53,
            592.89,
            719.32,
            839.51,
            951.11,
            977.64,
            1073.6,
            1015.9,
            884.74,
            753.61,
            606.88,
            511.65,
            448.43,
            414.08,
            399.24,
            385.96,
            350.05,
            314.93,
            292.28,
            299.3,
            289.14,
            316.44,
            335.95,
            362.48,
            389.01,
            400.71,
            442.07,
            479.53,
            515.43,
            569.28,
            588.77,
            569.26,
            533.35,
            515.39,
            493.53,
            434.2,
            409.22,
            392.82,
            383.45,
            364.7,
            353.76,
            295.21,
            275.69,
            254.61,
            242.9,
            226.5,
            238.98,
            271.75,
            284.23,
            299.05,
            342.75,
            383.33,
            348.2,
            291.22,
            284.97,
            249.06,
            230.32,
            216.26,
            199.87,
            212.34,
            238.09,
            249.79,
            209.96,
            240.4,
            277.85,
            309.06,
            316.08,
            333.24,
            360.55,
            419.09,
            450.3,
            474.48,
            518.18,
            501.0,
            341.77,
            314.44,
            275.41,
            314.43,
            319.89,
            305.82,
            300.35,
            291.74,
            245.69,
            219.14,
            208.99,
            173.86,
            164.49,
            152.77,
            144.18,
            127.77,
            105.91,
            139.47,
            123.85,
            113.69,
            105.1,
            91.82,
            71.52,
            80.86,
            66.8,
            76.15,
            91.74,
            101.1,
            111.24,
            101.08,
            88.58,
            97.15,
            119.0,
            131.48,
            116.64,
            98.69,
            89.31,
            111.16,
            124.41,
            99.41,
            79.89,
            72.85,
            64.26,
            54.11,
            48.63,
            57.98,
            63.43,
            55.61,
            45.45,
            54.03,
            40.75,
            60.25,
            44.63,
            38.37,
            32.12,
            28.98,
            22.72,
            25.83,
            21.13,
            16.44,
            10.17,
            21.87,
            32.79,
            12.48,
            26.51,
            17.9,
            14.73,
            10.78,
            16.22,
            9.18,
            14.61,
            10.63
          ]
        ]
      }
    },
    "003": {
      "common": {
        "heads": [
          "E-ERR-DIG",
          "ERR-DIG"
        ],
        "units": [
          "KEV",
          "ARB-UNITS"
        ],
        "data": [
          [
            0.98
          ],
          [
            1.3
          ]
        ]
      },
      "data": {
        "heads": [
          "E-MIN",
          "E-MAX",
          "DATA"
        ],
        "units": [
          "KEV",
          "KEV",
          "ARB-UNITS"
        ],
        "data": [
          [
            null,
            3.52,
            7.51,
            11.46,
            15.58,
            20.3,
            22.99,
            25.9,
            31.49,
            36.95,
            40.83,
            43.85,
            48.53,
            52.54,
            56.62,
            59.97,
            63.04,
            67.29,
            70.31,
            75.71,
            79.28,
            84.06,
            91.67,
            95.64,
            100.61,
            107.57,
            109.99,
            114.97,
            117.22,
            124.59,
            128.71,
            134.49,
            138.73,
            142.0,
            146.48,
            149.54,
            154.3,
            157.77,
            161.65,
            165.35,
            170.45,
            173.81,
            178.38,
            183.74,
            186.14,
            191.5,
            194.61,
            197.95,
            203.87,
            208.73,
            214.12,
            217.49,
            222.4,
            227.25,
            229.86,
            234.03,
            239.05,
            243.3,
            246.05,
            250.8,
            254.87,
            258.08,
            263.47,
            267.15,
            271.31,
            275.77,
            279.16,
            282.62,
            285.46,
            289.92,
            294.36,
            298.72,
            302.99,
            305.62,
            309.39,
            314.34,
            320.39,
            327.02,
            330.84,
            335.77,
            339.05,
            343.9,
            347.74,
            352.77,
            357.68,
            365.3,
            370.15,
            375.48,
            380.83,
            386.76,
            393.79,
            399.14,
            402.9,
            406.19,
            410.04,
            418.21,
            428.99,
            432.2,
            435.87,
            438.46,
            442.29,
            446.22,
            451.71,
            458.26,
            462.72,
            467.69,
            471.0,
            474.31,
            479.74,
            485.75,
            493.92,
            503.12,
            507.97,
            517.75,
            528.09,
            536.13,
            540.53,
            549.84,
            560.15,
            566.68,
            572.13,
            579.71,
            587.87,
            597.59,
            607.32,
            613.82,
            627.35,
            643.59,
            651.75,
            659.92,
            668.03,
            676.75,
            683.82,
            690.9,
            695.8,
            714.24,
            720.74,
            728.34,
            737.02,
            744.64,
            749.54,
            757.14,
            774.48,
            779.92,
            797.68,
            802.27,
            804.34,
            806.53,
            807.99,
            809.93,
            812.44,
            816.52,
            819.45,
            822.7,
            823.95,
            826.55,
            828.25,
            830.52,
            832.46,
            833.94,
            837.27,
            838.51,
            840.34,
            842.39,
            844.62,
            846.99,
            848.99,
            851.53,
            853.31,
            854.87,
            856.65,
            859.02,
            861.25,
            863.09,
            864.63,
            866.74,
            868.24,
            870.38,
            872.16,
            874.19,
            876.43,
            878.43,
            881.17,
            882.65,
            884.21,
            886.23,
            887.98,
            891.19,
            892.17,
            893.9,
            896.76,
            898.44,
            900.38,
            902.88,
            905.34,
            906.97,
            909.37,
            912.91,
            915.99,
            919.26,
            921.45,
            923.9,
            924.67,
            926.83,
            929.05,
            931.83,
            934.06,
            936.01,
            941.17,
            944.17,
            947.18,
            949.9,
            952.92,
            955.06,
            956.97,
            958.66,
            961.41,
            963.3,
            967.07,
            971.39,
            973.0,
            975.19,
            977.4,
            979.11,
            991.19,
            993.1,
            995.27,
            996.87,
            998.8,
            1000.45,
            1002.35,
            1007.0,
            1008.3,
            1012.4,
            1014.6,
            1016.8,
            1019.55,
            1021.5,
            1023.65,
            1026.15
          ],
          [
            3.52,
            7.51,
            11.46,
            15.58,
            20.3,
            22.99,
            25.9,
            31.49,
            36.95,
            40.83,
            43.85,
            48.53,
            52.54,
            56.62,
            59.97,
            63.04,
            67.29,
            70.31,
            75.71,
            79.28,
            84.06,
            91.67,
            95.64,
            100.61,
            107.57,
            109.99,
            114.97,
            117.22,
            124.59,
            128.71,
            134.49,
            138.73,
            142.0,
            146.48,
            149.54,
            154.3,
            157.77,
            161.65,
            165.35,
            170.45,
            173.81,
            178.38,
            183.74,
            186.14,
            191.5,
            194.61,
            197.95,
            203.87,
            208.73,
            214.12,
            217.49,
            222.4,
            227.25,
            229.86,
            234.03,
            239.05,
            243.3,
            246.05,
            250.8,
            254.87,
            258.08,
            263.47,
            267.15,
            271.31,
            275.77,
            279.16,
            282.62,
            285.46,
            289.92,
            294.36,
            298.72,
            302.99,
            305.62,
            309.39,
            314.34,
            320.39,
            327.02,
            330.84,
            335.77,
            339.05,
            343.9,
            347.74,
            352.77,
            357.68,
            365.3,
            370.15,
            375.48,
            380.83,
            386.76,
            393.79,
            399.14,
            402.9,
            406.19,
            410.04,
            418.21,
            428.99,
            432.2,
            435.87,
            438.46,
            442.29,
            446.22,
            451.71,
            458.26,
            462.72,
            467.69,
            471.0,
            474.31,
            479.74,
            485.75,
            493.92,
            503.12,
            507.97,
            517.75,
            528.09,
            536.13,
            540.53,
            549.84,
            560.15,
            566.68,
            572.13,
            579.71,
            587.87,
            597.59,
            607.32,
            613.82,
            627.35,
            643.59,
            651.75,
            659.92,
            668.03,
            676.75,
            683.82,
            690.9,
            695.8,
            714.24,
            720.74,
            728.34,
            737.02,
            744.64,
            749.54,
            757.14,
            774.48,
            779.92,
            797.68,
            802.27,
            804.34,
            806.53,
            807.99,
            809.93,
            812.44,
            816.52,
            819.45,
            822.7,
            823.95,
            826.55,
            828.25,
            830.52,
            832.46,
            833.94,
            837.27,
            838.51,
            840.34,
            842.39,
            844.62,
            846.99,
            848.99,
            851.53,
            853.31,
            854.87,
            856.65,
            859.02,
            861.25,
            863.09,
            864.63,
            866.74,
            868.24,
            870.38,
            872.16,
            874.19,
            876.43,
            878.43,
            881.17,
            882.65,
            884.21,
            886.23,
            887.98,
            891.19,
            892.17,
            893.9,
            896.76,
            898.44,
            900.38,
            902.88,
            905.34,
            906.97,
            909.37,
            912.91,
            915.99,
            919.26,
            921.45,
            923.9,
            924.67,
            926.83,
            929.05,
            931.83,
            934.06,
            936.01,
            941.17,
            944.17,
            947.18,
            949.9,
            952.92,
            955.06,
            956.97,
            958.66,
            961.41,
            963.3,
            967.07,
            971.39,
            973.0,
            975.19,
            977.4,
            979.11,
            991.19,
            993.1,
            995.27,
            996.87,
            998.8,
            1000.45,
            1002.35,
            1007.0,
            1008.3,
            1012.4,
            1014.6,
            1016.8,
            1019.55,
            1021.5,
            1023.65,
            1026.15,
            null
          ],
          [
            39.7,
            159.8,
            448.69,
            827.65,
            1045.8,
            899.09,
            560.2,
            316.01,
            238.05,
            296.11,
            449.58,
            647.07,
            789.87,
            795.23,
            660.5,
            507.07,
            493.77,
            549.82,
            599.21,
            558.56,
            455.84,
            320.45,
            259.79,
            229.12,
            229.17,
            273.9,
            357.31,
            460.74,
            538.83,
            589.57,
            635.63,
            667.69,
            677.05,
            658.4,
            601.72,
            514.35,
            442.33,
            406.99,
            409.68,
            457.09,
            543.84,
            628.59,
            670.65,
            651.34,
            571.3,
            471.26,
            416.58,
            411.27,
            418.65,
            424.68,
            414.7,
            400.05,
            398.76,
            414.12,
            444.83,
            510.24,
            627.02,
            756.47,
            829.21,
            813.23,
            724.52,
            610.48,
            503.09,
            413.06,
            357.05,
            328.38,
            290.38,
            251.04,
            223.05,
            197.06,
            182.41,
            188.45,
            206.48,
            217.18,
            213.87,
            195.22,
            171.92,
            155.28,
            146.63,
            139.32,
            139.35,
            138.04,
            115.39,
            94.74,
            88.1,
            89.49,
            103.53,
            121.57,
            132.96,
            140.34,
            151.73,
            164.42,
            162.45,
            151.8,
            142.49,
            147.24,
            159.29,
            179.32,
            207.37,
            216.06,
            197.4,
            175.41,
            162.12,
            143.47,
            119.49,
            102.16,
            89.51,
            82.87,
            76.91,
            67.6,
            67.01,
            71.72,
            73.09,
            67.84,
            71.9,
            77.28,
            57.96,
            47.37,
            45.43,
            38.78,
            38.83,
            36.88,
            38.94,
            45.68,
            51.07,
            54.45,
            61.25,
            62.0,
            54.7,
            52.76,
            50.82,
            43.52,
            38.24,
            34.27,
            28.35,
            35.1,
            28.48,
            32.53,
            25.92,
            19.28,
            15.99,
            20.74,
            18.15,
            15.55,
            8.7,
            11.62,
            14.11,
            11.69,
            9.78,
            10.18,
            7.87,
            10.62,
            11.23,
            12.17,
            16.6,
            18.11,
            13.65,
            14.63,
            12.21,
            9.36,
            9.76,
            15.13,
            13.69,
            8.73,
            11.98,
            12.62,
            7.73,
            9.2,
            13.67,
            13.2,
            7.13,
            4.34,
            5.22,
            7.77,
            9.65,
            11.19,
            16.23,
            13.54,
            9.28,
            8.24,
            6.7,
            4.42,
            6.17,
            11.74,
            9.69,
            6.78,
            4.8,
            9.73,
            10.1,
            5.81,
            4.23,
            3.8,
            2.79,
            1.92,
            2.76,
            2.39,
            5.78,
            2.8,
            2.27,
            3.17,
            2.27,
            3.28,
            4.82,
            4.19,
            3.35,
            2.34,
            0.9,
            0.6,
            2.25,
            0.98,
            2.22,
            1.38,
            1.92,
            2.86,
            2.29,
            0.58,
            1.22,
            1.79,
            3.74,
            4.31,
            4.75,
            4.28,
            3.82,
            0.63,
            1.41,
            0.94,
            1.71,
            3.16,
            1.25,
            2.72,
            1.35,
            3.26,
            3.7,
            2.87,
            3.37,
            2.43,
            0.72,
            1.33,
            1.7,
            0.66
          ]
        ]
      }
    },
    "004": {
      "common": {
        "heads": [
          "E-ERR-DIG",
          "ERR-DIG"
        ],
        "units": [
          "KEV",
          "ARB-UNITS"
        ],
        "data": [
          [
            1.44
          ],
          [
            1.29
          ]
        ]
      },
      "data": {
        "heads": [
          "E-MIN",
          "E-MAX",
          "DATA"
        ],
        "units": [
          "KEV",
          "KEV",
          "ARB-UNITS"
        ],
        "data": [
          [
            null,
            19.9,
            25.63,
            30.53,
            35.43,
            40.34,
            44.41,
            49.29,
            52.54,
            57.43,
            60.69,
            64.79,
            68.92,
            73.85,
            79.58,
            82.85,
            87.71,
            92.54,
            98.17,
            102.19,
            107.97,
            113.84,
            116.39,
            122.2,
            129.6,
            132.03,
            136.94,
            141.03,
            145.11,
            149.2,
            153.26,
            156.48,
            161.3,
            165.23,
            168.3,
            172.22,
            176.29,
            182.16,
            184.82,
            189.14,
            192.59,
            196.81,
            199.33,
            205.06,
            209.11,
            214.84,
            218.12,
            223.88,
            228.85,
            234.63,
            240.37,
            252.66,
            258.42,
            261.75,
            265.02,
            271.55,
            276.47,
            281.43,
            287.21,
            292.96,
            297.87,
            302.76,
            304.35,
            310.11,
            313.41,
            319.17,
            324.11,
            333.98,
            338.86,
            341.24,
            343.63,
            348.51,
            354.26,
            356.78,
            362.62,
            366.78,
            370.89,
            375.83,
            381.56,
            389.73,
            394.65,
            399.55,
            405.28,
            411.86,
            416.79,
            422.52,
            426.59,
            431.52,
            438.1,
            440.54,
            447.04,
            450.27,
            456.83,
            459.25,
            465.0,
            469.95,
            473.16,
            477.15,
            481.92,
            483.35,
            489.7,
            492.01,
            496.82,
            502.59,
            509.27,
            514.28,
            518.47,
            521.01,
            524.45,
            527.94,
            533.83,
            539.63,
            545.39,
            551.98,
            557.75,
            562.61,
            567.55,
            573.34,
            578.32,
            583.38,
            586.74,
            589.25,
            593.42,
            597.59,
            601.7,
            608.22,
            610.63,
            613.01,
            617.79,
            621.76,
            624.95,
            632.28,
            633.89,
            639.67,
            640.59,
            646.42,
            653.84,
            662.1,
            664.67,
            668.05,
            675.55,
            682.2,
            686.25,
            692.79,
            697.7,
            700.89,
            706.59,
            712.36,
            716.59,
            720.82,
            725.81,
            730.01,
            735.82,
            740.75,
            743.19,
            747.27,
            753.02,
            757.99,
            761.26,
            765.3,
            772.69,
            776.82,
            783.4,
            790.82,
            794.11,
            799.83,
            804.73,
            813.77,
            816.28,
            822.06,
            826.98,
            829.41,
            837.59,
            841.7,
            845.87,
            851.63,
            857.33,
            859.74,
            864.61,
            871.16,
            877.71,
            889.15,
            892.37,
            895.59,
            902.04,
            906.85,
            909.31,
            919.2,
            925.85,
            929.21,
            933.4,
            937.58,
            945.03,
            950.84,
            954.95,
            958.21,
            962.31,
            967.22,
            969.63,
            974.51,
            976.95,
            983.54,
            987.67,
            994.23,
            998.3,
            1001.6,
            1005.75,
            1012.35,
            1019.75,
            1022.3,
            1026.4,
            1028.85,
            1033.8,
            1037.85,
            1041.95,
            1046.1,
            1055.2,
            1057.7,
            1060.2,
            1068.4,
            1077.4,
            1079.9,
            1085.7,
            1090.65,
            1096.45,
            1101.4,
            1106.25,
            1113.6,
            1120.15,
            1125.0,
            1127.4,
            1130.7,
            1134.0,
            1143.8,
            1149.6,
            1153.75,
            1160.3,
            1164.4,
            1168.55,
            1172.65,
            1176.8,
            1182.55,
            1185.8,
            1190.0,
            1194.1,
            1198.2,
            1202.3,
            1207.3,
            1216.35,
            1223.0,
            1228.75,
            1234.5,
            1239.45,
            1247.65,
            1254.3,
            1265.75,
            1272.3,
            1278.9,
            1286.3,
            1291.2,
            1295.35,
            1301.95,
            1310.15,
            1324.95,
            1330.7,
            1334.8,
            1338.85,
            1347.1,
            1350.4,
            1356.95,
            1361.05,
            1365.9,
            1372.45,
            1377.35,
            1381.5,
            1386.4,
            1388.9,
            1392.2,
            1396.3,
            1401.25,
            1405.35,
            1409.4,
            1413.6,
            1417.7,
            1424.25,
            1434.1,
            1441.55,
            1448.1,
            1454.7,
            1460.5,
            1465.35,
            1472.75,
            1476.9,
            1481.8,
            1485.15,
            1491.7,
            1495.0,
            1502.4,
            1508.95,
            1514.7,
            1525.4,
            1532.8,
            1542.7,
            1551.75,
            1560.8,
            1566.5,
            1573.1,
            1582.15,
            1593.65,
            1601.9,
            1609.25,
            1616.65,
            1624.05,
            1636.35,
            1643.75,
            1655.25,
            1668.4,
            1677.45,
            1685.7,
            1692.2,
            1698.0,
            1702.95,
            1710.3,
            1729.2,
            1732.45,
            1735.8,
            1741.55,
            1748.1,
            1754.7,
            1760.45,
            1766.2,
            1771.1,
            1776.05,
            1790.0,
            1803.15,
            1812.2,
            1824.5,
            1835.2,
            1840.9,
            1849.1,
            1854.05,
            1866.4,
            1874.6,
            1879.5,
            1885.25,
            1891.05,
            1895.95,
            1902.5,
            1909.1,
            1913.2,
            1924.7,
            1937.0,
            1943.6,
            1951.8,
            1957.55,
            1970.75,
            1980.6,
            1988.8,
            1998.65,
            2002.8,
            2006.35,
            2013.9,
            2023.85,
            2030.45,
            2036.3,
            2041.3,
            2047.95,
            2051.25,
            2058.75,
            2065.4,
            2075.35,
            2082.0,
            2089.5,
            2094.5,
            2097.9,
            2102.9,
            2107.85,
            2113.65,
            2116.95,
            2124.45,
            2130.25,
            2137.7,
            2143.55,
            2150.25,
            2154.4,
            2159.35,
            2166.0,
            2176.85,
            2182.7,
            2189.3,
            2193.45,
            2200.1,
            2205.15,
            2211.8,
            2216.7,
            2221.7,
            2224.25,
            2225.9,
            2230.1,
            2234.2,
            2238.35,
            2245.0,
            2249.1,
            2254.1,
            2260.7,
            2264.9,
            2272.4,
            2276.55,
            2279.0,
            2284.85,
            2291.5,
            2297.3,
            2303.9,
            2309.75,
            2315.55,
            2321.4,
            2325.6,
            2329.75,
            2333.9,
            2340.5,
            2344.7,
            2350.5,
            2357.15,
            2367.15,
            2373.8,
            2381.25,
            2386.25,
            2390.4,
            2396.2,
            2401.2,
            2407.85,
            2414.5,
            2418.65,
            2424.45,
            2427.8,
            2434.45,
            2437.75,
            2441.9,
            2446.9,
            2451.1,
            2457.7,
            2475.95,
            2480.95,
            2487.6,
            2500.1,
            2506.75,
            2510.85,
            2532.45,
            2539.15,
            2551.6,
            2559.95,
            2568.2,
            2584.85,
            2589.9,
            2601.5,
            2610.65,
            2628.9,
            2631.4,
            2637.25,
            2646.35,
            2653.0,
            2665.45,
            2672.1,
            2685.4,
            2688.75,
            2697.9,
            2702.9,
            2717.0,
            2725.35,
            2736.95,
            2740.3,
            2746.15,
            2751.1,
            2764.4,
            2769.4,
            2773.55,
            2779.35,
            2791.8,
            2805.95,
            2814.25,
            2834.2,
            2838.35,
            2845.0,
            2850.0,
            2871.6,
            2880.75,
            2951.4,
            2962.2,
            2991.3,
            2999.6
          ],
          [
            19.9,
            25.63,
            30.53,
            35.43,
            40.34,
            44.41,
            49.29,
            52.54,
            57.43,
            60.69,
            64.79,
            68.92,
            73.85,
            79.58,
            82.85,
            87.71,
            92.54,
            98.17,
            102.19,
            107.97,
            113.84,
            116.39,
            122.2,
            129.6,
            132.03,
            136.94,
            141.03,
            145.11,
            149.2,
            153.26,
            156.48,
            161.3,
            165.23,
            168.3,
            172.22,
            176.29,
            182.16,
            184.82,
            189.14,
            192.59,
            196.81,
            199.33,
            205.06,
            209.11,
            214.84,
            218.12,
            223.88,
            228.85,
            234.63,
            240.37,
            252.66,
            258.42,
            261.75,
            265.02,
            271.55,
            276.47,
            281.43,
            287.21,
            292.96,
            297.87,
            302.76,
            304.35,
            310.11,
            313.41,
            319.17,
            324.11,
            333.98,
            338.86,
            341.24,
            343.63,
            348.51,
            354.26,
            356.78,
            362.62,
            366.78,
            370.89,
            375.83,
            381.56,
            389.73,
            394.65,
            399.55,
            405.28,
            411.86,
            416.79,
            422.52,
            426.59,
            431.52,
            438.1,
            440.54,
            447.04,
            450.27,
            456.83,
            459.25,
            465.0,
            469.95,
            473.16,
            477.15,
            481.92,
            483.35,
            489.7,
            492.01,
            496.82,
            502.59,
            509.27,
            514.28,
            518.47,
            521.01,
            524.45,
            527.94,
            533.83,
            539.63,
            545.39,
            551.98,
            557.75,
            562.61,
            567.55,
            573.34,
            578.32,
            583.38,
            586.74,
            589.25,
            593.42,
            597.59,
            601.7,
            608.22,
            610.63,
            613.01,
            617.79,
            621.76,
            624.95,
            632.28,
            633.89,
            639.67,
            640.59,
            646.42,
            653.84,
            662.1,
            664.67,
            668.05,
            675.55,
            682.2,
            686.25,
            692.79,
            697.7,
            700.89,
            706.59,
            712.36,
            716.59,
            720.82,
            725.81,
            730.01,
            735.82,
            740.75,
            743.19,
            747.27,
            753.02,
            757.99,
            761.26,
            765.3,
            772.69,
            776.82,
            783.4,
            790.82,
            794.11,
            799.83,
            804.73,
            813.77,
            816.28,
            822.06,
            826.98,
            829.41,
            837.59,
            841.7,
            845.87,
            851.63,
            857.33,
            859.74,
            864.61,
            871.16,
            877.71,
            889.15,
            892.37,
            895.59,
            902.04,
            906.85,
            909.31,
            919.2,
            925.85,
            929.21,
            933.4,
            937.58,
            945.03,
            950.84,
            954.95,
            958.21,
            962.31,
            967.22,
            969.63,
            974.51,
            976.95,
            983.54,
            987.67,
            994.23,
            998.3,
            1001.6,
            1005.75,
            1012.35,
            1019.75,
            1022.3,
            1026.4,
            1028.85,
            1033.8,
            1037.85,
            1041.95,
            1046.1,
            1055.2,
            1057.7,
            1060.2,
            1068.4,
            1077.4,
            1079.9,
            1085.7,
            1090.65,
            1096.45,
            1101.4,
            1106.25,
            1113.6,
            1120.15,
            1125.0,
            1127.4,
            1130.7,
            1134.0,
            1143.8,
            1149.6,
            1153.75,
            1160.3,
            1164.4,
            1168.55,
            1172.65,
            1176.8,
            1182.55,
            1185.8,
            1190.0,
            1194.1,
            1198.2,
            1202.3,
            1207.3,
            1216.35,
            1223.0,
            1228.75,
            1234.5,
            1239.45,
            1247.65,
            1254.3,
            1265.75,
            1272.3,
            1278.9,
            1286.3,
            1291.2,
            1295.35,
            1301.95,
            1310.15,
            1324.95,
            1330.7,
            1334.8,
            1338.85,
            1347.1,
            1350.4,
            1356.95,
            1361.05,
            1365.9,
            1372.45,
            1377.35,
            1381.5,
            1386.4,
            1388.9,
            1392.2,
            1396.3,
            1401.25,
            1405.35,
            1409.4,
            1413.6,
            1417.7,
            1424.25,
            1434.1,
            1441.55,
            1448.1,
            1454.7,
            1460.5,
            1465.35,
            1472.75,
            1476.9,
            1481.8,
            1485.15,
            1491.7,
            1495.0,
            1502.4,
            1508.95,
            1514.7,
            1525.4,
            1532.8,
            1542.7,
            1551.75,
            1560.8,
            1566.5,
            1573.1,
            1582.15,
            1593.65,
            1601.9,
            1609.25,
            1616.65,
            1624.05,
            1636.35,
            1643.75,
            1655.25,
            1668.4,
            1677.45,
            1685.7,
            1692.2,
            1698.0,
            1702.95,
            1710.3,
            1729.2,
            1732.45,
            1735.8,
            1741.55,
            1748.1,
            1754.7,
            1760.45,
            1766.2,
            1771.1,
            1776.05,
            1790.0,
            1803.15,
            1812.2,
            1824.5,
            1835.2,
            1840.9,
            1849.1,
            1854.05,
            1866.4,
            1874.6,
            1879.5,
            1885.25,
            1891.05,
            1895.95,
            1902.5,
            1909.1,
            1913.2,
            1924.7,
            1937.0,
            1943.6,
            1951.8,
            1957.55,
            1970.75,
            1980.6,
            1988.8,
            1998.65,
            2002.8,
            2006.3,
            2013.9,
            2023.85,
            2030.45,
            2036.3,
            2041.3,
            2047.95,
            2051.25,
            2058.75,
            2065.4,
            2075.35,
            2082.0,
            2089.5,
            2094.5,
            2097.9,
            2102.9,
            2107.85,
            2113.65,
            2116.95,
            2124.45,
            2130.25,
            2137.7,
            2143.55,
            2150.25,
            2154.4,
            2159.35,
            2166.0,
            2176.85,
            2182.7,
            2189.3,
            2193.45,
            2200.1,
            2205.15,
            2211.8,
            2216.7,
            2221.7,
            2224.25,
            2225.9,
            2230.1,
            2234.2,
            2238.35,
            2245.0,
            2249.1,
            2254.1,
            2260.7,
            2264.9,
            2272.4,
            2276.55,
            2279.0,
            2284.85,
            2291.5,
            2297.3,
            2303.9,
            2309.75,
            2315.55,
            2321.4,
            2325.6,
            2329.75,
            2333.9,
            2340.5,
            2344.7,
            2350.5,
            2357.15,
            2367.15,
            2373.8,
            2381.25,
            2386.25,
            2390.4,
            2396.2,
            2401.2,
            2407.85,
            2414.5,
            2418.65,
            2424.45,
            2427.8,
            2434.45,
            2437.75,
            2441.9,
            2446.9,
            2451.1,
            2457.7,
            2475.95,
            2480.95,
            2487.6,
            2500.1,
            2506.75,
            2510.85,
            2532.45,
            2539.15,
            2551.6,
            2559.95,
            2568.2,
            2584.85,
            2589.9,
            2601.5,
            2610.65,
            2628.9,
            2631.4,
            2637.25,
            2646.35,
            2653.0,
            2665.45,
            2672.1,
            2685.4,
            2688.75,
            2697.9,
            2702.9,
            2717.0,
            2725.35,
            2736.95,
            2740.3,
            2746.15,
            2751.1,
            2764.4,
            2769.4,
            2773.55,
            2779.35,
            2791.8,
            2805.95,
            2814.25,
            2834.2,
            2838.35,
            2845.0,
            2850.0,
            2871.6,
            2880.75,
            2951.4,
            2962.2,
            2991.3,
            2999.6,
            null
          ],
          [
            7.64,
            16.09,
            47.78,
            71.01,
            92.13,
            119.6,
            162.89,
            205.13,
            233.64,
            273.77,
            295.95,
            280.12,
            256.9,
            273.8,
            283.31,
            322.38,
            400.52,
            514.56,
            629.64,
            684.55,
            583.21,
            457.58,
            403.73,
            343.57,
            391.09,
            412.21,
            427.0,
            454.46,
            471.36,
            492.48,
            542.11,
            622.36,
            750.11,
            964.45,
            1186.2,
            1318.15,
            1252.7,
            1086.9,
            877.91,
            675.2,
            557.0,
            463.0,
            449.28,
            506.3,
            539.04,
            550.66,
            558.06,
            520.06,
            487.34,
            460.95,
            504.25,
            528.55,
            472.6,
            450.44,
            505.35,
            528.58,
            506.42,
            471.59,
            454.71,
            471.61,
            491.68,
            547.64,
            579.32,
            548.71,
            528.66,
            549.78,
            506.51,
            523.42,
            593.1,
            681.8,
            739.87,
            776.84,
            740.94,
            661.76,
            577.31,
            553.03,
            569.93,
            524.54,
            623.8,
            593.2,
            649.16,
            654.45,
            676.63,
            642.85,
            673.48,
            688.26,
            734.73,
            688.29,
            718.91,
            746.38,
            840.35,
            868.86,
            856.2,
            943.84,
            862.55,
            897.4,
            1011.4,
            1130.75,
            1313.4,
            1539.35,
            1732.55,
            1845.5,
            1961.7,
            1810.75,
            1749.5,
            1647.1,
            1593.25,
            1491.9,
            1300.8,
            1087.5,
            1036.9,
            992.54,
            1016.85,
            954.56,
            978.84,
            1081.3,
            963.03,
            1003.2,
            865.92,
            745.56,
            721.28,
            665.33,
            599.88,
            537.59,
            597.78,
            646.36,
            680.15,
            814.23,
            971.56,
            1083.5,
            1154.25,
            1194.35,
            1215.45,
            1144.7,
            1019.15,
            989.56,
            970.57,
            895.62,
            771.04,
            716.15,
            557.79,
            578.91,
            659.16,
            628.55,
            704.57,
            802.78,
            807.01,
            762.67,
            577.92,
            529.35,
            458.62,
            350.94,
            330.89,
            352.01,
            368.91,
            412.21,
            366.82,
            338.32,
            397.45,
            456.58,
            404.86,
            422.82,
            382.71,
            365.82,
            381.67,
            427.08,
            431.31,
            409.15,
            355.31,
            336.32,
            378.56,
            400.74,
            437.7,
            400.76,
            328.97,
            374.38,
            433.51,
            473.64,
            533.82,
            516.94,
            579.25,
            631.0,
            705.97,
            757.71,
            934.04,
            983.67,
            959.39,
            908.73,
            811.61,
            766.21,
            658.52,
            627.92,
            539.24,
            514.97,
            531.87,
            564.6,
            541.38,
            601.57,
            650.14,
            688.15,
            697.67,
            655.44,
            642.79,
            691.36,
            708.26,
            662.86,
            604.81,
            612.21,
            564.71,
            515.09,
            498.2,
            530.94,
            546.78,
            591.13,
            573.19,
            533.08,
            485.58,
            434.9,
            448.64,
            442.32,
            434.94,
            366.32,
            347.33,
            368.45,
            277.66,
            328.35,
            381.15,
            418.12,
            465.64,
            499.43,
            573.34,
            560.67,
            529.01,
            560.7,
            535.37,
            488.92,
            520.61,
            501.61,
            470.99,
            488.96,
            420.33,
            483.69,
            417.18,
            395.01,
            361.24,
            393.97,
            377.09,
            354.93,
            285.26,
            248.32,
            259.94,
            211.38,
            276.85,
            189.24,
            174.47,
            243.11,
            197.73,
            225.19,
            206.19,
            195.64,
            151.31,
            180.89,
            171.4,
            141.86,
            179.87,
            247.45,
            184.11,
            202.07,
            174.63,
            203.14,
            267.56,
            318.25,
            286.58,
            317.21,
            299.27,
            265.49,
            292.94,
            250.72,
            238.06,
            256.01,
            275.02,
            263.42,
            213.8,
            276.1,
            230.72,
            223.34,
            209.62,
            242.37,
            149.47,
            187.49,
            233.96,
            210.74,
            199.13,
            163.24,
            134.74,
            162.2,
            147.43,
            128.44,
            170.68,
            150.63,
            137.98,
            115.82,
            102.11,
            83.12,
            67.29,
            78.92,
            62.04,
            75.78,
            37.79,
            56.81,
            70.55,
            48.39,
            71.63,
            99.1,
            79.06,
            69.58,
            59.04,
            40.05,
            60.12,
            46.4,
            33.74,
            18.97,
            32.72,
            69.69,
            43.31,
            24.31,
            54.94,
            33.83,
            21.17,
            45.47,
            57.09,
            15.92,
            20.16,
            32.85,
            18.09,
            27.61,
            39.25,
            57.21,
            42.44,
            50.9,
            28.74,
            39.32,
            19.27,
            53.06,
            62.57,
            31.96,
            62.59,
            71.05,
            54.16,
            42.56,
            52.09,
            36.27,
            46.84,
            34.18,
            23.67,
            10.99,
            21.56,
            30.02,
            19.48,
            6.94,
            32.06,
            36.29,
            15.95,
            22.72,
            27.8,
            34.58,
            20.59,
            4.49,
            33.29,
            18.03,
            12.52,
            29.04,
            12.08,
            35.81,
            52.33,
            38.77,
            30.71,
            21.39,
            17.99,
            36.63,
            31.54,
            21.79,
            27.72,
            37.04,
            45.08,
            28.98,
            22.62,
            48.46,
            40.4,
            36.58,
            23.02,
            38.27,
            55.64,
            48.85,
            30.63,
            49.27,
            54.78,
            65.37,
            48.42,
            35.28,
            41.63,
            39.08,
            27.22,
            20.01,
            27.21,
            33.98,
            29.32,
            21.27,
            14.48,
            24.65,
            14.05,
            19.55,
            14.04,
            18.7,
            7.25,
            26.74,
            40.72,
            35.63,
            15.71,
            8.08,
            36.47,
            12.74,
            22.47,
            30.52,
            15.68,
            23.73,
            16.52,
            20.76,
            14.4,
            23.29,
            27.94,
            22.01,
            14.8,
            19.46,
            27.93,
            21.15,
            11.82,
            15.21,
            19.02,
            25.8,
            16.89,
            10.95,
            15.18,
            4.58,
            24.49,
            14.31,
            4.14,
            13.45,
            7.51,
            19.79,
            12.15,
            7.06,
            11.29,
            15.1,
            12.12,
            4.06,
            16.77,
            19.3,
            11.25,
            4.03,
            8.69,
            14.19,
            4.44,
            7.4,
            17.14,
            9.93,
            6.54,
            16.7,
            3.55,
            7.36,
            16.68,
            8.2,
            3.53,
            9.46,
            14.54,
            9.03,
            4.79,
            2.23,
            9.43,
            2.64,
            6.44,
            10.25,
            6.86,
            3.03,
            6.84,
            2.57,
            4.66,
            1.25,
            3.36,
            0.39
          ]
        ]
      }
    },
    "005": {
      "common": {
        "heads": [
          "E-ERR-DIG",
          "ERR-DIG"
        ],
        "units": [
          "KEV",
          "ARB-UNITS"
        ],
        "data": [
          [
            1.39
          ],
          [
            0.52947
          ]
        ]
      },
      "data": {
        "heads": [
          "E",
          "E-ERR",
          "DATA"
        ],
        "units": [
          "KEV",
          "KEV",
          "ARB-UNITS"
        ],
        "data": [
          [
            null,
            72.7,
            77.52,
            81.8,
            88.95,
            95.34,
            101.32,
            105.07,
            108.95,
            114.29,
            119.37,
            121.68,
            128.0,
            132.03,
            138.92,
            143.12,
            146.2,
            151.56,
            157.79,
            163.82,
            166.46,
            174.41,
            176.85,
            181.87,
            187.52,
            190.52,
            195.15,
            203.15,
            208.27,
            213.5,
            221.93,
            224.76,
            229.8,
            234.09,
            239.05,
            245.36,
            251.66,
            257.14,
            261.46,
            265.9,
            271.79,
            275.53,
            281.88,
            285.99,
            290.79,
            295.03,
            300.25,
            308.95,
            313.88,
            319.44,
            328.77,
            335.96,
            343.09,
            349.79,
            355.4,
            361.0,
            371.92,
            377.15,
            383.1,
            390.33,
            405.98,
            408.57,
            418.29,
            423.32,
            427.83,
            431.92,
            436.75,
            446.91,
            452.16,
            457.01,
            460.03,
            466.41,
            470.36,
            477.11,
            484.99,
            491.22,
            494.67,
            495.92,
            502.3,
            506.73,
            511.13,
            514.81,
            521.96,
            525.31,
            530.35,
            535.58,
            543.46,
            546.23,
            550.33,
            557.48,
            564.14,
            567.83,
            575.21,
            582.48,
            586.58,
            591.31,
            593.91,
            602.49,
            609.95,
            616.37,
            622.48,
            631.07,
            634.93,
            642.17,
            647.81,
            653.6,
            658.86,
            662.67,
            667.59,
            672.38,
            675.85,
            681.6,
            690.9,
            695.25,
            702.5,
            704.56,
            710.95,
            715.2,
            721.01,
            726.09,
            729.41,
            735.59,
            742.58,
            748.48,
            757.1,
            762.83,
            768.07,
            771.03,
            775.5,
            781.21,
            784.49,
            791.41,
            794.81,
            796.78,
            801.92,
            811.29,
            813.76,
            817.97,
            826.58,
            831.37,
            834.38,
            840.38,
            845.35,
            850.97,
            856.05,
            861.25,
            866.495,
            872.37,
            877.43,
            880.24,
            885.23,
            891.71,
            895.38,
            898.39,
            902.03,
            909.76,
            913.13,
            920.37,
            927.67,
            931.15,
            938.11,
            944.49,
            952.44,
            957.38,
            959.8,
            968.22,
            974.65,
            976.5,
            981.65,
            987.66,
            991.31,
            996.47,
            1001.45,
            1007.85,
            1015.7,
            1020.5,
            1023.8,
            1030.35,
            1033.85,
            1039.5,
            1043.85,
            1049.1,
            1052.2,
            1057.5,
            1061.95,
            1067.45,
            1071.95,
            1077.55,
            1082.2,
            1085.7,
            1093.25,
            1099.15,
            1107.8,
            1112.75,
            1120.45,
            1128.9,
            1136.25,
            1149.25,
            1154.25,
            1159.3,
            1164.2,
            1164.7,
            1169.75,
            1176.4,
            1181.15,
            1184.25,
            1187.55,
            1194.8,
            1199.85,
            1205.65,
            1213.55,
            1217.7,
            1221.2,
            1227.05,
            1233.05,
            1237.6,
            1241.1,
            1246.55,
            1255.05,
            1261.5,
            1266.0,
            1275.3,
            1280.05,
            1281.2,
            1288.3,
            1292.0,
            1297.05,
            1304.1,
            1312.0,
            1319.2,
            1323.4,
            1329.25,
            1335.9,
            1344.85,
            1358.55,
            1369.0,
            1377.3,
            1385.75,
            1395.95,
            1401.75,
            1407.45,
            1411.25,
            1417.05,
            1423.95,
            1427.8,
            1435.55,
            1441.35,
            1442.85,
            1448.3,
            1457.05,
            1463.6,
            1469.15,
            1473.3,
            1476.7,
            1480.95,
            1487.8,
            1492.6,
            1497.45,
            1502.15,
            1507.35,
            1509.4,
            1515.0,
            1519.15,
            1524.85,
            1529.75,
            1536.2,
            1539.3,
            1545.1,
            1549.75,
            1554.6,
            1564.15,
            1568.05,
            1571.85,
            1581.8,
            1590.4,
            1599.65,
            1608.05,
            1613.7,
            1617.95,
            1625.8,
            1632.35,
            1636.15,
            1646.1,
            1649.55,
            1656.6,
            1660.8,
            1667.3,
            1673.95,
            1680.4,
            1684.55,
            1690.25,
            1697.45,
            1701.15,
            1710.35,
            1715.25,
            1722.35,
            1727.3,
            1730.9,
            1735.35,
            1743.2,
            1745.9,
            1753.85,
            1759.65,
            1766.1,
            1774.05,
            1779.05,
            1783.2,
            1787.5,
            1791.75,
            1795.15,
            1801.65,
            1805.35,
            1809.75,
            1815.3,
            1819.95,
            1827.65,
            1832.75,
            1835.05,
            1840.75,
            1845.25,
            1852.5,
            1858.9,
            1866.85,
            1871.05,
            1878.2,
            1887.4,
            1890.0,
            1898.4,
            1905.55,
            1910.5,
            1918.35,
            1924.25,
            1933.4,
            1938.35,
            1944.55,
            1951.2,
            1958.4,
            1971.35,
            1985.5,
            1994.75,
            2000.0,
            2006.2,
            2015.3,
            2020.7,
            2023.7,
            2031.0,
            2035.3,
            2041.9,
            2047.3,
            2051.6,
            2055.8,
            2060.0,
            2066.7,
            2070.3,
            2076.4,
            2083.0,
            2087.3,
            2092.7,
            2096.9,
            2099.4,
            2103.0,
            2107.2,
            2114.5,
            2120.5,
            2124.7,
            2127.8,
            2132.6,
            2144.7,
            2147.7,
            2150.7,
            2156.2,
            2161.0,
            2165.8,
            2170.7,
            2172.5,
            2176.1,
            2181.0,
            2186.4,
            2191.9,
            2195.5,
            2199.7,
            2202.7,
            2207.5,
            2212.4,
            2216.0,
            2221.5,
            2226.3,
            2231.2,
            2235.4,
            2240.2,
            2245.7,
            2248.1,
            2251.1,
            2256.6,
            2263.2,
            2268.6,
            2273.5,
            2275.3,
            2280.7,
            2284.4,
            2289.8,
            2292.8,
            2296.4,
            2300.1,
            2304.9,
            2308.5,
            2311.0,
            2318.8,
            2323.1,
            2327.3,
            2332.1,
            2344.2,
            2350.9,
            2358.1,
            2362.4,
            2368.4,
            2375.6,
            2381.1,
            2384.1,
            2389.0,
            2392.0,
            2394.4,
            2399.8,
            2415.0,
            2421.0,
            2424.0,
            2431.3,
            2439.8,
            2444.0,
            2450.6,
            2454.9,
            2458.5,
            2464.5,
            2468.8,
            2484.5,
            2489.3,
            2493.0,
            2497.8,
            2502.6,
            2509.3,
            2514.7,
            2516.5,
            2522.0,
            2525.6,
            2531.1,
            2532.9,
            2536.5,
            2538.3,
            2541.3,
            2548.0,
            2552.2,
            2557.0,
            2559.5,
            2563.1,
            2570.3,
            2578.2,
            2595.1,
            2598.8,
            2603.0,
            2626.0,
            2639.3,
            2646.5,
            2653.8,
            2665.9,
            2670.7,
            2674.3,
            2679.2,
            2681.0,
            2687.0,
            2702.2,
            2709.4,
            2718.5,
            2728.8,
            2734.2,
            2737.2,
            2751.1,
            2757.8,
            2770.5,
            2774.7,
            2780.1,
            2785.6,
            2804.3,
            2809.2,
            2814.0,
            2818.2,
            2829.7,
            2834.6,
            2839.4,
            2842.4,
            2855.1,
            2859.9,
            2864.2,
            2866.6,
            2871.4,
            2876.9,
            2880.5,
            2882.9,
            2886.5,
            2891.4,
            2897.4,
            2907.1,
            2911.9,
            2914.4,
            2929.5,
            2931.9,
            2938.6,
            2945.8,
            2955.5,
            2966.4,
            2976.0,
            2978.4,
            2982.7,
            2985.7,
            2991.1,
            2999.6,
            3005.1,
            3010.5,
            3014.7,
            3017.8,
            3021.4,
            3025.0,
            3030.4,
            3042.5,
            3051.6
          ],
          [
            72.7,
            77.52,
            81.8,
            88.95,
            95.34,
            101.32,
            105.07,
            108.95,
            114.29,
            119.37,
            121.68,
            128.0,
            132.03,
            138.92,
            143.12,
            146.2,
            151.56,
            157.79,
            163.82,
            166.46,
            174.41,
            176.85,
            181.87,
            187.52,
            190.52,
            195.15,
            203.15,
            208.27,
            213.5,
            221.93,
            224.76,
            229.8,
            234.09,
            239.05,
            245.36,
            251.66,
            257.14,
            261.46,
            265.9,
            271.79,
            275.53,
            281.88,
            285.99,
            290.79,
            295.03,
            300.25,
            308.95,
            313.88,
            319.44,
            328.77,
            335.96,
            343.09,
            349.79,
            355.4,
            361.0,
            371.92,
            377.15,
            383.1,
            390.33,
            405.98,
            408.57,
            418.29,
            423.32,
            427.83,
            431.92,
            436.75,
            446.91,
            452.16,
            457.01,
            460.03,
            466.41,
            470.36,
            477.11,
            484.99,
            491.22,
            494.67,
            495.92,
            502.3,
            506.73,
            511.13,
            514.81,
            521.96,
            525.31,
            530.35,
            535.58,
            543.46,
            546.23,
            550.33,
            557.48,
            564.14,
            567.83,
            575.21,
            582.48,
            586.58,
            591.31,
            593.91,
            602.49,
            609.95,
            616.37,
            622.48,
            631.07,
            634.93,
            642.17,
            647.81,
            653.6,
            658.86,
            662.67,
            667.59,
            672.38,
            675.85,
            681.6,
            690.9,
            695.25,
            702.5,
            704.56,
            710.95,
            715.2,
            721.01,
            726.09,
            729.41,
            735.59,
            742.58,
            748.48,
            757.1,
            762.83,
            768.07,
            771.03,
            775.5,
            781.21,
            784.49,
            791.41,
            794.81,
            796.78,
            801.92,
            811.29,
            813.76,
            817.97,
            826.58,
            831.37,
            834.38,
            840.38,
            845.35,
            850.97,
            856.05,
            861.25,
            866.495,
            872.37,
            877.43,
            880.24,
            885.23,
            891.71,
            895.38,
            898.39,
            902.03,
            909.76,
            913.13,
            920.37,
            927.67,
            931.15,
            938.11,
            944.49,
            952.44,
            957.38,
            959.8,
            968.22,
            974.65,
            976.5,
            981.65,
            987.66,
            991.31,
            996.47,
            1001.45,
            1007.85,
            1015.7,
            1020.5,
            1023.8,
            1030.35,
            1033.85,
            1039.5,
            1043.85,
            1049.1,
            1052.2,
            1057.5,
            1061.95,
            1067.45,
            1071.95,
            1077.55,
            1082.2,
            1085.7,
            1093.25,
            1099.15,
            1107.8,
            1112.75,
            1120.45,
            1128.9,
            1136.25,
            1149.25,
            1154.25,
            1159.3,
            1164.2,
            1164.7,
            1169.75,
            1176.4,
            1181.15,
            1184.25,
            1187.55,
            1194.8,
            1199.85,
            1205.65,
            1213.55,
            1217.7,
            1221.2,
            1227.05,
            1233.05,
            1237.6,
            1241.1,
            1246.55,
            1255.05,
            1261.5,
            1266.0,
            1275.3,
            1280.05,
            1281.2,
            1288.3,
            1292.0,
            1297.05,
            1304.1,
            1312.0,
            1319.2,
            1323.4,
            1329.25,
            1335.9,
            1344.85,
            1358.55,
            1369.0,
            1377.3,
            1385.75,
            1395.95,
            1401.75,
            1407.45,
            1411.25,
            1417.05,
            1423.95,
            1427.8,
            1435.55,
            1441.35,
            1442.85,
            1448.3,
            1457.05,
            1463.6,
            1469.15,
            1473.3,
            1476.7,
            1480.95,
            1487.8,
            1492.6,
            1497.45,
            1502.15,
            1507.35,
            1509.4,
            1515.0,
            1519.15,
            1524.85,
            1529.75,
            1536.2,
            1539.3,
            1545.1,
            1549.75,
            1554.6,
            1564.15,
            1568.05,
            1571.85,
            1581.8,
            1590.4,
            1599.65,
            1608.05,
            1613.7,
            1617.95,
            1625.8,
            1632.35,
            1636.15,
            1646.1,
            1649.55,
            1656.6,
            1660.8,
            1667.3,
            1673.95,
            1680.4,
            1684.55,
            1690.25,
            1697.45,
            1701.15,
            1710.35,
            1715.25,
            1722.35,
            1727.3,
            1730.9,
            1735.35,
            1743.2,
            1745.9,
            1753.85,
            1759.65,
            1766.1,
            1774.05,
            1779.05,
            1783.2,
            1787.5,
            1791.75,
            1795.15,
            1801.65,
            1805.35,
            1809.75,
            1815.3,
            1819.95,
            1827.65,
            1832.75,
            1835.05,
            1840.75,
            1845.25,
            1852.5,
            1858.9,
            1866.85,
            1871.05,
            1878.2,
            1887.4,
            1890.0,
            1898.4,
            1905.55,
            1910.5,
            1918.35,
            1924.25,
            1933.4,
            1938.35,
            1944.55,
            1951.2,
            1958.4,
            1971.35,
            1985.5,
            1994.75,
            2000.0,
            2006.2,
            2015.3,
            2020.7,
            2023.7,
            2031.0,
            2035.3,
            2041.9,
            2047.3,
            2051.6,
            2055.8,
            2060.0,
            2066.7,
            2070.3,
            2076.4,
            2083.0,
            2087.3,
            2092.7,
            2096.9,
            2099.4,
            2103.0,
            2107.2,
            2114.5,
            2120.5,
            2124.7,
            2127.8,
            2132.6,
            2144.7,
            2147.7,
            2150.7,
            2156.2,
            2161.0,
            2165.8,
            2170.7,
            2172.5,
            2176.1,
            2181.0,
            2186.4,
            2191.9,
            2195.5,
            2199.7,
            2202.7,
            2207.5,
            2212.4,
            2216.0,
            2221.5,
            2226.3,
            2231.2,
            2235.4,
            2240.2,
            2245.7,
            2248.1,
            2251.1,
            2256.6,
            2263.2,
            2268.6,
            2273.5,
            2275.3,
            2280.7,
            2284.4,
            2289.8,
            2292.8,
            2296.4,
            2300.1,
            2304.9,
            2308.5,
            2311.0,
            2318.8,
            2323.1,
            2327.3,
            2332.1,
            2344.2,
            2350.9,
            2358.1,
            2362.4,
            2368.4,
            2375.6,
            2381.1,
            2384.1,
            2389.0,
            2392.0,
            2394.4,
            2399.8,
            2415.0,
            2421.0,
            2424.0,
            2431.3,
            2439.8,
            2444.0,
            2450.6,
            2454.9,
            2458.5,
            2464.5,
            2468.8,
            2484.5,
            2489.3,
            2493.0,
            2497.8,
            2502.6,
            2509.3,
            2514.7,
            2516.5,
            2522.0,
            2525.6,
            2531.1,
            2532.9,
            2536.5,
            2538.3,
            2541.3,
            2548.0,
            2552.2,
            2557.0,
            2559.5,
            2563.1,
            2570.3,
            2578.2,
            2595.1,
            2598.8,
            2603.0,
            2626.0,
            2639.3,
            2646.5,
            2653.8,
            2665.9,
            2670.7,
            2674.3,
            2679.2,
            2681.0,
            2687.0,
            2702.2,
            2709.4,
            2718.5,
            2728.8,
            2734.2,
            2737.2,
            2751.1,
            2757.8,
            2770.5,
            2774.7,
            2780.1,
            2785.6,
            2804.3,
            2809.2,
            2814.0,
            2818.2,
            2829.7,
            2834.6,
            2839.4,
            2842.4,
            2855.1,
            2859.9,
            2864.2,
            2866.6,
            2871.4,
            2876.9,
            2880.5,
            2882.9,
            2886.5,
            2891.4,
            2897.4,
            2907.1,
            2911.9,
            2914.4,
            2929.5,
            2931.9,
            2938.6,
            2945.8,
            2955.5,
            2966.4,
            2976.0,
            2978.4,
            2982.7,
            2985.7,
            2991.1,
            2999.6,
            3005.1,
            3010.5,
            3014.7,
            3017.8,
            3021.4,
            3025.0,
            3030.4,
            3042.5,
            3051.6,
            null
          ],
          [
            9.05,
            15.64,
            17.12,
            15.65,
            17.59,
            17.05,
            5.81,
            9.77,
            23.88,
            26.75,
            20.08,
            19.47,
            24.81,
            31.41,
            35.91,
            35.37,
            25.76,
            19.95,
            34.6,
            38.25,
            44.14,
            34.14,
            31.04,
            33.3,
            33.76,
            27.49,
            18.03,
            21.37,
            13.08,
            11.53,
            19.52,
            12.31,
            18.05,
            12.47,
            19.76,
            18.29,
            25.58,
            28.61,
            24.03,
            22.1,
            15.98,
            15.05,
            19.55,
            23.2,
            28.24,
            25.68,
            18.48,
            20.18,
            21.89,
            26.93,
            19.89,
            25.08,
            21.13,
            12.84,
            25.79,
            18.35,
            16.73,
            8.05,
            6.97,
            4.18,
            10.16,
            15.9,
            22.64,
            15.05,
            12.49,
            24.36,
            20.33,
            17.08,
            9.25,
            23.9,
            33.98,
            26.16,
            17.17,
            12.13,
            16.79,
            20.51,
            22.6,
            28.34,
            25.01,
            21.84,
            20.37,
            16.8,
            20.22,
            26.58,
            18.91,
            16.27,
            18.45,
            20.0,
            26.9,
            19.85,
            16.68,
            14.66,
            6.37,
            9.24,
            14.52,
            21.34,
            26.07,
            21.58,
            11.97,
            21.9,
            26.24,
            21.75,
            13.3,
            17.49,
            16.72,
            14.01,
            5.8,
            3.39,
            9.37,
            12.86,
            14.02,
            11.16,
            13.8,
            8.53,
            9.15,
            12.25,
            10.86,
            14.2,
            6.76,
            10.64,
            18.0,
            21.88,
            25.14,
            13.98,
            22.67,
            13.37,
            12.52,
            9.03,
            4.0,
            9.58,
            17.02,
            19.81,
            24.63,
            27.65,
            17.97,
            24.24,
            35.8,
            27.74,
            34.1,
            37.2,
            27.36,
            24.34,
            29.23,
            28.22,
            26.05,
            19.39,
            15.67,
            12.03,
            12.89,
            14.59,
            13.43,
            12.35,
            9.02,
            5.61,
            6.62,
            10.89,
            15.85,
            6.55,
            9.04,
            10.98,
            17.42,
            13.08,
            13.55,
            15.72,
            33.32,
            22.63,
            33.4,
            35.65,
            26.97,
            22.4,
            23.65,
            15.35,
            23.65,
            18.31,
            23.66,
            28.0,
            35.45,
            54.6,
            70.02,
            90.1,
            97.7,
            79.49,
            56.85,
            33.76,
            18.26,
            11.51,
            7.25,
            17.41,
            24.78,
            17.73,
            9.36,
            8.04,
            6.96,
            9.29,
            16.12,
            13.49,
            8.22,
            5.51,
            8.61,
            5.44,
            11.8,
            16.22,
            7.46,
            6.69,
            19.71,
            27.47,
            32.2,
            53.44,
            62.59,
            49.88,
            28.41,
            24.93,
            29.89,
            21.68,
            16.1,
            11.6,
            19.36,
            21.22,
            24.48,
            20.38,
            15.65,
            18.6,
            26.35,
            31.32,
            28.69,
            26.52,
            24.58,
            32.57,
            22.27,
            29.24,
            26.22,
            24.21,
            17.24,
            7.4,
            12.68,
            17.41,
            26.33,
            22.69,
            16.42,
            19.99,
            16.58,
            9.84,
            14.03,
            21.32,
            33.41,
            26.05,
            30.08,
            53.96,
            74.66,
            77.38,
            69.32,
            52.11,
            44.36,
            29.48,
            13.29,
            11.97,
            22.05,
            15.85,
            5.93,
            7.02,
            9.5,
            13.15,
            16.09,
            14.55,
            19.12,
            15.02,
            7.11,
            11.69,
            23.09,
            16.5,
            12.47,
            3.87,
            1.16,
            4.89,
            1.71,
            6.06,
            7.54,
            10.17,
            8.63,
            12.59,
            3.21,
            2.05,
            5.85,
            8.33,
            9.73,
            11.13,
            7.34,
            1.68,
            6.33,
            8.43,
            7.04,
            4.72,
            3.32,
            7.98,
            9.07,
            7.36,
            12.87,
            7.83,
            5.98,
            7.84,
            11.25,
            5.68,
            6.61,
            5.53,
            3.67,
            4.76,
            7.71,
            5.69,
            8.8,
            11.67,
            7.87,
            5.62,
            3.07,
            12.22,
            19.82,
            17.81,
            15.48,
            13.47,
            14.95,
            4.79,
            10.07,
            5.03,
            7.6,
            8.99,
            7.84,
            11.87,
            19.55,
            21.1,
            19.55,
            21.34,
            19.72,
            13.83,
            26.93,
            16.47,
            5.23,
            6.56,
            1.83,
            3.86,
            6.88,
            4.79,
            7.547,
            8.749,
            10.34,
            8.284,
            5.223,
            4.176,
            3.402,
            5.727,
            4.293,
            2.123,
            3.402,
            5.805,
            3.984,
            4.372,
            5.341,
            2.822,
            1.659,
            2.435,
            2.629,
            4.76,
            6.311,
            4.102,
            5.187,
            4.567,
            3.133,
            2.281,
            3.599,
            5.033,
            5.576,
            7.165,
            6.119,
            7.204,
            8.25,
            6.972,
            4.84,
            2.321,
            4.918,
            2.903,
            4.609,
            5.074,
            4.609,
            6.779,
            6.392,
            2.633,
            1.199,
            2.129,
            1.742,
            1.161,
            0.618,
            1.083,
            1.394,
            3.099,
            4.378,
            2.867,
            5.309,
            3.797,
            5.193,
            5.425,
            3.875,
            1.938,
            2.868,
            5.775,
            3.837,
            1.861,
            3.372,
            3.062,
            1.861,
            3.915,
            2.055,
            1.707,
            3.335,
            2.327,
            2.87,
            2.289,
            3.452,
            2.871,
            3.956,
            2.832,
            1.825,
            2.871,
            3.337,
            2.445,
            1.903,
            0.663,
            1.439,
            2.408,
            0.509,
            2.369,
            1.362,
            2.215,
            2.409,
            2.913,
            1.44,
            0.433,
            1.867,
            4.154,
            2.216,
            0.434,
            1.287,
            0.589,
            1.209,
            2.256,
            1.907,
            0.59,
            1.287,
            2.256,
            1.52,
            1.249,
            0.397,
            3.575,
            4.118,
            1.443,
            0.591,
            1.211,
            0.863,
            0.398,
            1.406,
            1.949,
            2.298,
            1.562,
            0.943,
            0.284,
            0.749,
            0.323,
            1.409,
            2.107,
            1.525,
            0.905,
            0.247,
            0.867,
            0.364,
            0.868,
            1.333,
            0.946,
            0.249,
            0.83,
            0.443,
            0.831,
            0.521,
            1.374,
            0.483,
            0.91,
            0.406,
            0.91,
            0.251,
            0.833,
            1.337,
            0.523,
            0.291,
            0.718,
            1.222,
            0.873,
            0.292,
            0.796,
            1.145,
            1.377,
            2.889,
            1.378,
            0.254,
            0.874,
            1.34,
            0.836,
            0.294,
            0.837,
            1.341,
            0.372,
            0.256,
            0.838,
            0.295,
            0.838,
            1.381,
            0.645,
            0.18,
            1.382,
            0.142,
            0.956,
            0.181,
            0.84,
            1.111,
            1.305,
            0.918,
            0.298,
            1.345,
            0.298
          ]
        ]
      }
    },
    "006": {
      "common": {
        "heads": [
          "E-DN"
        ],
        "units": [
          "KEV"
        ],
        "data": [
          [
            501.0
          ]
        ]
      },
      "data": {
        "heads": [
          "E-NM",
          "E-NM-ERR",
          "DATA",
          "DATA-MAX",
          "LVL-INI"
        ],
        "units": [
          "KEV",
          "KEV",
          "NO-DIM",
          "NO-DIM",
          "MEV"
        ],
        "data": [
          [
            57.0,
            142.0,
            248.0,
            274.0,
            501.0,
            522.0,
            716.0,
            853.0,
            936.0,
            1168.0,
            1201.0,
            1385.0,
            1437.0,
            1524.0,
            2038.0,
            2394.0,
            2623.0,
            2650.0,
            2840.0,
            3553.0
          ],
          [
            1.0,
            3.0,
            6.0,
            2.0,
            3.0,
            3.0,
            3.0,
            null,
            4.0,
            7.0,
            8.0,
            null,
            7.0,
            11.0,
            null,
            null,
            null,
            null,
            null,
            null
          ],
          [
            0.16,
            0.41,
            0.05,
            0.15,
            1.0,
            0.87,
            0.51,
            null,
            0.73,
            0.36,
            0.34,
            null,
            0.4,
            0.2,
            null,
            null,
            null,
            null,
            null,
            null
          ],
          [
            null,
            null,
            null,
            null,
            null,
            null,
            null,
            0.05,
            null,
            null,
            null,
            0.05,
            null,
            null,
            0.01,
            0.01,
            0.01,
            0.01,
            0.01,
            0.001
          ],
          [
            5.64,
            6.96,
            7.67,
            6.51,
            6.74,
            6.77,
            6.96,
            7.67,
            6.51,
            6.74,
            6.77,
            6.96,
            7.67,
            5.64,
            7.67,
            6.51,
            6.74,
            6.77,
            6.96,
            7.67
          ]
        ]
      }
    },
    "007": {
      "common": {
        "heads": [
          "E-DN"
        ],
        "units": [
          "KEV"
        ],
        "data": [
          [
            1458.0
          ]
        ]
      },
      "data": {
        "heads": [
          "E-NM",
          "E-NM-ERR",
          "DATA",
          "DATA-MAX",
          "LVL-INI"
        ],
        "units": [
          "KEV",
          "KEV",
          "NO-DIM",
          "NO-DIM",
          "MEV"
        ],
        "data": [
          [
            47.0,
            85.0,
            162.0,
            268.0,
            377.0,
            430.0,
            435.0,
            458.0,
            499.0,
            549.0,
            623.0,
            783.0,
            848.0,
            977.0,
            1035.0,
            1042.0,
            1090.0,
            1136.0,
            1159.0,
            1201.0,
            1251.0,
            1322.0,
            1384.0,
            1458.0,
            1549.0,
            1618.0,
            1739.0,
            2126.0,
            2314.0,
            2666.0,
            2735.0,
            2827.0,
            2896.0
          ],
          [
            null,
            null,
            3.0,
            null,
            null,
            null,
            null,
            2.0,
            3.0,
            3.0,
            3.0,
            3.0,
            2.0,
            2.0,
            null,
            2.0,
            null,
            null,
            null,
            2.0,
            4.0,
            4.0,
            4.0,
            2.0,
            3.0,
            5.0,
            null,
            null,
            null,
            null,
            null,
            null,
            null
          ],
          [
            null,
            null,
            0.11,
            null,
            null,
            null,
            null,
            0.16,
            0.12,
            0.13,
            0.11,
            0.11,
            0.2,
            0.25,
            null,
            0.88,
            null,
            null,
            null,
            0.54,
            0.1,
            0.24,
            0.17,
            1.0,
            0.26,
            0.1,
            null,
            null,
            null,
            null,
            null,
            null,
            null
          ],
          [
            0.05,
            0.05,
            null,
            0.05,
            0.05,
            0.05,
            0.05,
            null,
            null,
            null,
            null,
            null,
            null,
            null,
            0.05,
            null,
            0.05,
            0.05,
            0.05,
            null,
            null,
            null,
            null,
            null,
            null,
            null,
            0.03,
            0.07,
            0.05,
            0.015,
            0.005,
            0.002,
            0.006
          ],
          [
            5.29,
            5.86,
            5.29,
            6.22,
            6.29,
            6.38,
            5.68,
            5.29,
            6.45,
            5.68,
            5.86,
            5.86,
            5.68,
            6.22,
            5.86,
            6.29,
            6.22,
            6.38,
            6.29,
            6.45,
            6.38,
            6.45,
            6.22,
            6.29,
            6.38,
            6.45,
            5.29,
            5.68,
            5.86,
            6.22,
            6.29,
            6.38,
            6.45
          ]
        ]
      }
    },
    "008": {
      "common": null,
      "data": {
        "heads": [
          "E-LVL-NM",
          "DATA",
          "DATA-ERR"
        ],
        "units": [
          "KEV",
          "NO-DIM",
          "NO-DIM"
        ],
        "data": [
          [
            0.0,
            1455.0,
            2122.0,
            2700.0,
            3299.0
          ],
          [
            0.35,
            0.31,
            0.22,
            0.085,
            0.035
          ],
          [
            0.07,
            0.06,
            0.03,
            0.025,
            0.02
          ]
        ]
      }
    },
    "009": {
      "common": null,
      "data": {
        "heads": [
          "E-LVL-NM",
          "DATA",
          "DATA-ERR"
        ],
        "units": [
          "KEV",
          "NO-DIM",
          "NO-DIM"
        ],
        "data": [
          [
            0.0,
            1279.0,
            1576.0,
            1691.0,
            2397.0
          ],
          [
            0.47,
            0.26,
            0.03,
            0.21,
            0.04
          ],
          [
            0.12,
            0.1,
            0.03,
            0.05,
            0.03
          ]
        ]
      }
    },
    "010": {
      "common": {
        "heads": [
          "E-DN",
          "E-DN-ERR"
        ],
        "units": [
          "KEV",
          "KEV"
        ],
        "data": [
          [
            18.0
          ],
          [
            1.5
          ]
        ]
      },
      "data": {
        "heads": [
          "E-NM",
          "E-NM-ERR",
          "DATA",
          "DATA-ERR",
          "MISC",
          "MISC-ERR"
        ],
        "units": [
          "KEV",
          "KEV",
          "NO-DIM",
          "NO-DIM",
          "KEV",
          "KEV"
        ],
        "data": [
          [
            18.0,
            40.3,
            52.2,
            70.8,
            79.9,
            121.1,
            135.8,
            147.5,
            169.2,
            181.8,
            211.1,
            248.0,
            256.2,
            312.4,
            339.3,
            386.1,
            401.2,
            407.4,
            437.7,
            457.0,
            638.2,
            668.1
          ],
          [
            1.5,
            1.5,
            2.3,
            1.7,
            2.6,
            2.8,
            1.9,
            1.8,
            3.2,
            3.2,
            2.4,
            3.5,
            2.5,
            2.4,
            3.1,
            2.2,
            3.2,
            3.2,
            2.4,
            2.9,
            3.9,
            4.2
          ],
          [
            1.0,
            0.16,
            0.73,
            0.34,
            0.24,
            0.32,
            0.32,
            0.27,
            0.14,
            0.38,
            0.12,
            0.45,
            0.15,
            0.12,
            0.06,
            0.07,
            0.07,
            0.1,
            0.15,
            0.08,
            0.04,
            0.02
          ],
          [
            0.1,
            0.02,
            0.07,
            0.07,
            0.07,
            0.04,
            0.04,
            0.04,
            0.05,
            0.05,
            0.05,
            0.08,
            0.06,
            0.02,
            0.02,
            0.01,
            0.01,
            0.02,
            0.02,
            0.02,
            0.01,
            0.006
          ],
          [
            18.2,
            40.8,
            52.8,
            71.6,
            80.8,
            122.5,
            137.4,
            149.2,
            171.2,
            183.9,
            213.6,
            250.9,
            259.2,
            316.0,
            343.2,
            390.8,
            405.9,
            412.1,
            442.8,
            462.3,
            645.6,
            675.9
          ],
          [
            1.5,
            1.5,
            2.3,
            1.7,
            2.6,
            2.8,
            1.9,
            2.5,
            3.2,
            3.2,
            2.4,
            3.5,
            2.5,
            2.4,
            3.1,
            2.2,
            3.2,
            3.2,
            2.4,
            2.9,
            3.9,
            4.2
          ]
        ]
      }
    },
    "011": {
      "common": {
        "heads": [
          "MONIT",
          "MONIT-ERR",
          "DATA-ERR"
        ],
        "units": [
          "NO-DIM",
          "NO-DIM",
          "PER-CENT"
        ],
        "data": [
          [
            0.023
          ],
          [
            0.002
          ],
          [
            25.0
          ]
        ]
      },
      "data": {
        "heads": [
          "E",
          "E-ERR",
          "DATA"
        ],
        "units": [
          "KEV",
          "KEV",
          "NO-DIM"
        ],
        "data": [
          [
            18.0,
            40.3,
            52.2,
            70.8,
            79.9,
            121.1,
            135.8,
            147.5,
            169.2,
            181.8,
            211.1,
            248.0,
            256.2,
            312.4,
            339.3,
            386.1,
            401.2,
            407.4,
            437.7,
            457.0,
            638.2,
            668.1
          ],
          [
            1.5,
            1.5,
            2.3,
            1.7,
            2.6,
            2.8,
            1.9,
            1.8,
            3.2,
            3.2,
            2.4,
            3.5,
            2.5,
            2.4,
            3.1,
            2.2,
            3.2,
            3.2,
            2.4,
            2.9,
            3.9,
            4.2
          ],
          [
            0.0037,
            0.0006,
            0.0027,
            0.0013,
            0.00089,
            0.00116,
            0.00119,
            0.00098,
            0.00052,
            0.00139,
            0.00044,
            0.00164,
            0.00057,
            0.00044,
            0.00021,
            0.00027,
            0.00024,
            0.00037,
            0.00055,
            0.00027,
            0.00013,
            0.00069
          ]
        ]
      }
    },
    "012": {
      "common": {
        "heads": [
          "E-DN"
        ],
        "units": [
          "KEV"
        ],
        "data": [
          [
            371.6
          ]
        ]
      },
      "data": {
        "heads": [
          "E-NM",
          "E-NM-ERR",
          "DATA",
          "DATA-ERR"
        ],
        "units": [
          "KEV",
          "KEV",
          "NO-DIM",
          "NO-DIM"
        ],
        "data": [
          [
            77.1,
            126.4,
            154.2,
            168.9,
            255.2,
            268.5,
            318.7,
            347.1,
            371.6,
            389.9,
            414.6,
            455.6,
            476.2,
            498.0,
            514.3,
            555.0,
            577.1,
            601.2,
            682.2,
            719.3,
            741.6,
            766.8,
            837.5,
            849.3,
            873.7,
            923.3,
            946.0,
            966.2,
            992.3,
            1047.0,
            1091.9,
            1124.4,
            1145.8,
            1174.8,
            1196.0
          ],
          [
            0.3,
            4.4,
            1.5,
            4.1,
            1.3,
            1.2,
            1.1,
            4.8,
            0.6,
            1.6,
            1.2,
            3.1,
            0.9,
            1.5,
            1.9,
            1.2,
            0.7,
            1.6,
            1.6,
            2.1,
            0.7,
            1.1,
            3.3,
            1.1,
            2.4,
            3.1,
            1.1,
            1.7,
            1.5,
            1.2,
            3.3,
            1.5,
            1.5,
            1.8,
            2.2
          ],
          [
            0.261,
            0.014,
            0.078,
            0.031,
            0.269,
            0.335,
            0.235,
            0.096,
            1.0,
            0.325,
            0.257,
            0.132,
            0.505,
            0.403,
            0.263,
            0.322,
            0.483,
            0.15,
            0.076,
            0.081,
            0.306,
            0.154,
            0.129,
            0.453,
            0.072,
            0.059,
            0.228,
            0.127,
            0.093,
            0.107,
            0.043,
            0.113,
            0.113,
            0.106,
            0.099
          ],
          [
            0.012,
            0.008,
            0.012,
            0.012,
            0.042,
            0.043,
            0.047,
            0.042,
            null,
            0.038,
            0.03,
            0.041,
            0.043,
            0.048,
            0.041,
            0.062,
            0.051,
            0.032,
            0.012,
            0.013,
            0.018,
            0.015,
            0.059,
            0.06,
            0.014,
            0.018,
            0.019,
            0.017,
            0.013,
            0.013,
            0.021,
            0.018,
            0.018,
            0.014,
            0.014
          ]
        ]
      }
    },
    "013": {
      "common": {
        "heads": [
          "EN-ERR-DIG",
          "ERR-DIG"
        ],
        "units": [
          "KEV",
          "ARB-UNITS"
        ],
        "data": [
          [
            2.28
          ],
          [
            0.937
          ]
        ]
      },
      "data": {
        "heads": [
          "E-MIN",
          "E-MAX",
          "DATA"
        ],
        "units": [
          "KEV",
          "KEV",
          "ARB-UNITS"
        ],
        "data": [
          [
            -28.57,
            -23.7,
            -16.84,
            -9.03,
            -1.22,
            6.85,
            16.07,
            23.24,
            31.3,
            39.28,
            47.29,
            55.38,
            61.65,
            69.88,
            78.84,
            85.8,
            93.81,
            102.65,
            109.46,
            117.35,
            125.27,
            133.87,
            142.39,
            151.1,
            157.95,
            165.8,
            174.62,
            181.45,
            191.18,
            199.0,
            205.89,
            214.58,
            222.38,
            230.41,
            238.28,
            246.07,
            254.16,
            262.28,
            269.14,
            278.83,
            287.6,
            294.33,
            302.34,
            310.26,
            317.97,
            326.17,
            333.43,
            341.61,
            349.1,
            357.13,
            363.88,
            372.72,
            381.09,
            388.45,
            397.02,
            406.26,
            413.44,
            421.83,
            429.75,
            437.89,
            445.86,
            452.83,
            461.7,
            469.6,
            477.39,
            485.05,
            492.72,
            501.02,
            509.41,
            517.47,
            526.21,
            533.62,
            542.53,
            549.76,
            557.76,
            565.36,
            574.51,
            582.93,
            591.43,
            599.02,
            606.61,
            614.11,
            622.73,
            631.19,
            639.54,
            647.99,
            655.71,
            663.65,
            671.46,
            680.3,
            688.14,
            695.95,
            702.01,
            710.72,
            719.23,
            727.12,
            734.91,
            742.53,
            750.52,
            758.62,
            766.29,
            773.78,
            781.43,
            790.0,
            798.66,
            805.59,
            813.47,
            821.55,
            828.63,
            838.12,
            846.38,
            855.01,
            862.95,
            870.59,
            879.09,
            887.7,
            895.49,
            904.2,
            911.96,
            918.92,
            926.09,
            935.05,
            942.64,
            950.29,
            959.96,
            967.54,
            976.12,
            984.67,
            992.29,
            998.16,
            1006.0,
            1014.85,
            1024.55,
            1032.15,
            1039.75,
            1048.25,
            1056.15,
            1071.85,
            1080.55,
            1088.2,
            1096.0,
            1103.8,
            1112.65,
            1119.9,
            1127.7,
            1136.5,
            1145.2,
            1152.55,
            1161.45,
            1169.25,
            1175.8,
            1183.35,
            1191.95,
            1199.85,
            1207.8,
            1216.4,
            1224.9,
            1232.75,
            1241.4,
            1248.0,
            1255.85,
            1263.75,
            1270.5,
            1280.0,
            1288.65,
            1294.6,
            1304.35,
            1312.05,
            1319.8,
            1328.5,
            1337.15,
            1344.9,
            1351.75,
            1360.5,
            1369.25,
            1384.75,
            1391.6,
            1399.5,
            1408.2,
            1416.85,
            1424.65,
            1431.4,
            1440.05,
            1449.7,
            1455.55,
            1463.45,
            1472.3,
            1479.15,
            1488.7,
            1496.4,
            1504.2,
            1519.75,
            1528.4,
            1536.25,
            1551.8,
            1560.4,
            1568.25,
            1576.15,
            1583.9,
            1592.6,
            1599.4,
            1607.1,
            1612.9
          ],
          [
            -23.7,
            -16.84,
            -9.03,
            -1.22,
            6.85,
            16.07,
            23.24,
            31.3,
            39.28,
            47.29,
            55.38,
            61.65,
            69.88,
            78.84,
            85.8,
            93.81,
            102.65,
            109.46,
            117.35,
            125.27,
            133.87,
            142.39,
            151.1,
            157.95,
            165.8,
            174.62,
            181.45,
            191.18,
            199.0,
            205.89,
            214.58,
            222.38,
            230.41,
            238.28,
            246.07,
            254.16,
            262.28,
            269.14,
            278.83,
            287.6,
            294.33,
            302.34,
            310.26,
            317.97,
            326.17,
            333.43,
            341.61,
            349.1,
            357.13,
            363.88,
            372.72,
            381.09,
            388.45,
            397.02,
            406.26,
            413.44,
            421.83,
            429.75,
            437.89,
            445.86,
            452.83,
            461.7,
            469.6,
            477.39,
            485.05,
            492.72,
            501.02,
            509.41,
            517.47,
            526.21,
            533.62,
            542.53,
            549.76,
            557.76,
            565.36,
            574.51,
            582.93,
            591.43,
            599.02,
            606.61,
            614.11,
            622.73,
            631.19,
            639.54,
            647.99,
            655.71,
            663.65,
            671.46,
            680.3,
            688.14,
            695.95,
            702.01,
            710.72,
            719.23,
            727.12,
            734.91,
            742.53,
            750.52,
            758.62,
            766.29,
            773.78,
            781.43,
            790.0,
            798.66,
            805.59,
            813.47,
            821.55,
            828.63,
            838.12,
            846.38,
            855.01,
            862.95,
            870.59,
            879.09,
            887.7,
            895.49,
            904.2,
            911.96,
            918.92,
            926.09,
            935.05,
            942.64,
            950.29,
            959.96,
            967.54,
            976.12,
            984.67,
            992.29,
            998.16,
            1006.0,
            1014.85,
            1024.55,
            1032.15,
            1039.75,
            1048.25,
            1056.15,
            1071.85,
            1080.55,
            1088.2,
            1096.0,
            1103.8,
            1112.65,
            1119.9,
            1127.7,
            1136.5,
            1145.2,
            1152.55,
            1161.45,
            1169.25,
            1175.8,
            1183.35,
            1191.95,
            1199.85,
            1207.8,
            1216.4,
            1224.9,
            1232.75,
            1241.4,
            1248.0,
            1255.85,
            1263.75,
            1270.5,
            1280.0,
            1288.65,
            1294.6,
            1304.35,
            1312.05,
            1319.8,
            1328.5,
            1337.15,
            1344.9,
            1351.75,
            1360.5,
            1369.25,
            1384.75,
            1391.6,
            1399.5,
            1408.2,
            1416.85,
            1424.65,
            1431.4,
            1440.05,
            1449.7,
            1455.55,
            1463.45,
            1472.3,
            1479.15,
            1488.7,
            1496.4,
            1504.2,
            1519.75,
            1528.4,
            1536.25,
            1551.8,
            1560.4,
            1568.25,
            1576.15,
            1583.9,
            1592.6,
            1599.4,
            1607.1,
            1612.9,
            1620.7
          ],
          [
            2.162,
            3.323,
            11.61,
            10.392,
            18.081,
            63.776,
            106.5,
            132.01,
            157.515,
            172.325,
            199.015,
            231.06,
            280.915,
            315.325,
            320.045,
            344.955,
            363.34,
            362.115,
            361.495,
            384.025,
            387.565,
            356.05,
            343.545,
            348.26,
            351.795,
            361.27,
            364.8,
            365.955,
            364.735,
            373.615,
            380.705,
            363.455,
            382.425,
            412.085,
            398.995,
            413.215,
            457.125,
            477.29,
            466.565,
            472.465,
            469.47,
            459.935,
            510.385,
            486.595,
            499.035,
            563.745,
            583.905,
            640.285,
            710.93,
            689.52,
            698.995,
            704.895,
            628.845,
            624.065,
            596.12,
            533.73,
            481.435,
            465.965,
            508.695,
            534.195,
            544.265,
            563.235,
            568.545,
            584.545,
            571.455,
            561.33,
            550.61,
            477.525,
            481.65,
            528.535,
            479.805,
            459.575,
            510.62,
            539.1,
            552.13,
            503.99,
            446.355,
            439.195,
            399.97,
            403.5,
            364.275,
            350.58,
            339.86,
            295.285,
            264.375,
            239.395,
            253.025,
            268.44,
            259.495,
            283.215,
            272.495,
            287.91,
            315.195,
            278.935,
            271.185,
            298.47,
            273.495,
            268.715,
            313.22,
            328.035,
            293.565,
            273.345,
            267.97,
            242.395,
            249.49,
            264.9,
            267.84,
            320.665,
            318.85,
            279.02,
            225.545,
            256.395,
            254.58,
            231.385,
            206.405,
            205.19,
            207.535,
            198.0,
            202.72,
            227.635,
            270.36,
            266.17,
            235.855,
            240.57,
            226.88,
            203.685,
            192.955,
            165.615,
            163.805,
            171.495,
            169.68,
            196.365,
            173.175,
            155.92,
            132.135,
            117.845,
            146.31,
            153.98,
            134.35,
            123.625,
            140.225,
            123.565,
            169.855,
            199.52,
            172.165,
            213.705,
            161.41,
            137.625,
            180.35,
            147.655,
            128.03,
            108.4,
            98.275,
            125.565,
            128.5,
            94.612,
            91.018,
            102.865,
            70.762,
            67.765,
            83.768,
            90.868,
            71.236,
            49.225,
            53.949,
            66.389,
            56.259,
            57.416,
            55.603,
            38.343,
            39.5,
            41.254,
            43.595,
            38.81,
            40.549,
            30.997,
            45.817,
            52.912,
            37.433,
            35.621,
            37.969,
            28.433,
            14.146,
            16.491,
            25.371,
            34.248,
            41.933,
            36.558,
            20.493,
            16.298,
            19.818,
            13.24,
            6.673,
            17.91,
            4.201,
            2.982,
            16.017,
            19.549,
            12.985,
            9.981,
            5.797,
            2.801,
            1.587
          ]
        ]
      }
    }
  },
  "experimental_conditions": {
    "001": {
      "0": {
        "analysis": [
          {
            "x4_code": null,
            "free_txt": [
              "Codes SAMPO and NEUTRN, OMNIFIT ( see REL-REFs) were",
              "used ."
            ]
          }
        ],
        "add-res": [
          {
            "x4_code": null,
            "free_txt": [
              "- N-17 delayed neutron spectrum on Fig.6 of",
              "J,NIM,144,253,1977 was measured and used as standard at",
              "background measurement ( Fig.6 data were not digitized",
              "by compiler due to lot of overlapping)."
            ]
          },
          {
            "x4_code": "(DECAY)",
            "free_txt": [
              " Beta- strength functions - figs. 3, 4 of",
              "J,NP/A,317,335,1979 - for Br87, As85, I137, Sb135;",
              "figs.6,7 of C,76CORSICA,,304,1976 - for Br87, Sb135 .",
              "- Decay scheme for Sb135(0,B-)Te135(N,G)Te134 is on",
              "Fig.5 of C,76CORSICA,,304,1976 .",
              "- Levels energies in Kr87 are in Table 1 of",
              "C,76CORSICA,,304,1976 ."
            ]
          }
        ],
        "correction": [
          {
            "x4_code": null,
            "free_txt": [
              " - For thermal neutrons and gamma-ray pile-up.",
              " - Total plateau distribution ( constructed with a set",
              "of response functions) was subtracted.",
              " - For detection efficiency.",
              "Neutrons from the bulk fission product waste accounted",
              "for <0.4 % of total count rate and",
              "< 0.02% had energies > 40 keV.",
              "Scattered neutrons < 7 % of measured spectra."
            ]
          }
        ],
        "detector": [
          {
            "x4_code": "(HE3SP)",
            "free_txt": [
              " He-3 spectrometer - cylindrical gridded",
              "ionization chamber.",
              "Neutrons are detected through reaction",
              "He-3 + n -> p + H-3 + 763.8keV.",
              "Filled with gas mixture He-3 + Ar + methane at 10 atm.",
              "Active volume 5cm diameter x 15 cm. Surrounded by 2mm",
              "boron nitride powder layer sandwiched between 0.5mm Cd",
              "sheets.",
              "Two identical spectrometers operated.",
              "Energy calibration and response functions in the energy",
              "range 0.019-2.77 MeV, detection efficiency ( using BF3",
              "long counter; at lower energies - He-3 small He3 prop.",
              "counter) were obtained via Li-7(p,n)Be-7 .",
              "Absolute energy calibration accuracy 0.1%.",
              "Response function - on Fig.2 of J,NIM,144,253,1977.",
              "Relative efficiency - on Fig.7 of J,NIM,144,253,1977.",
              "Energy resolution < 12 keV for thermal, about 20 keV",
              "for 1.0 MeV neutrons."
            ]
          }
        ],
        "facility": [
          {
            "x4_code": "(REAC,2GERMNZ)",
            "free_txt": [
              " Mainz TRIGA reactor."
            ]
          }
        ],
        "method": [
          {
            "x4_code": null,
            "free_txt": [
              "Delayed neutron precursors were produced by thermal",
              "neutron induced fission of U-235 and isolated through",
              "chemical separation."
            ]
          },
          {
            "x4_code": "(PHD)",
            "free_txt": []
          }
        ],
        "rel-ref": [
          {
            "x4_code": "(N,,J.T.Routti+,J,NIM,72,125,1969)",
            "free_txt": [
              " SAMPO code.",
              " NEUTTRN code - H.Ohm,G.Wirth,K.Suemmerer,H.Franz,",
              "Program Library,Institute fuer Kernchemie, Universitaet",
              "Mainz, 1975."
            ]
          },
          {
            "x4_code": "(R,23240001,H.Ohm+,J,NP/A,274,45,1976)",
            "free_txt": []
          },
          {
            "x4_code": "(R,,A.R.Poletti+,J,PR/C,8,1285,1973)",
            "free_txt": [
              " Two refs. for known delayed neutron spectrum of N-17,",
              "which was served as standard at background ( neutron",
              "scattering) measurement."
            ]
          }
        ]
      }
    },
    "002": {
      "0": {
        "analysis": [
          {
            "x4_code": null,
            "free_txt": [
              "Data from 375 experiments."
            ]
          }
        ],
        "comment": [
          {
            "x4_code": null,
            "free_txt": [
              "Of compiler. Negative values of E are given in DATA",
              "block as they are presented on Fig.2 lower."
            ]
          }
        ],
        "decay-data": [
          {
            "x4_code": "(53-I-137,24.5SEC)",
            "free_txt": []
          }
        ],
        "en-sec": [
          {
            "x4_code": "(E,N)",
            "free_txt": [
              " Energy of delayed neutrons."
            ]
          }
        ],
        "err-analys": [
          {
            "x4_code": "(E-ERR-DIG)",
            "free_txt": [
              " Digitizing error of E ( X scale)"
            ]
          },
          {
            "x4_code": "(ERR-DIG)",
            "free_txt": [
              "    Digitizing error of DATA ( Y scale)",
              "Quantization errors:",
              "scale X - 1.26 keV, scale Y - 1.56 arb.units."
            ]
          }
        ],
        "rel-ref": [
          {
            "x4_code": "(N,,K.Kratz,R,INDC(NDS)-107,103,1979)",
            "free_txt": [
              " The same spectrum is presented on Fig. 19 lower."
            ]
          }
        ],
        "sample": [
          {
            "x4_code": null,
            "free_txt": [
              "Halogens were isolated using ion exchange of halide",
              "ions into AgCl precipitates, interfering elements were",
              "removed by cation exchange. Halogens were separated",
              "from each  other by oxidation-reduction cycle.",
              "Separation time 3.5 sec after the end of irradiation.",
              "Mass < 0.05g."
            ]
          }
        ],
        "status": [
          {
            "x4_code": "(CURVE)",
            "free_txt": [
              " Fig.2 lower of J,NP/A,317,335,1979",
              "Uncorrected delayed neutron spectrum on Fig.9 of",
              "J,NIM,144,253,1977.",
              " Fig.3 of C,76CORSICA,,304,1976",
              " Fig.22 of P,MAINZ-75,55,1976 - prelim."
            ]
          }
        ]
      }
    },
    "003": {
      "0": {
        "analysis": [
          {
            "x4_code": null,
            "free_txt": [
              "Data from 280 experiments."
            ]
          }
        ],
        "comment": [
          {
            "x4_code": null,
            "free_txt": [
              "Of compiler. On Fig.1 lower there are two scales for E",
              "< 800 keV and >800 keV. Digitization was done for each",
              "scale regions separately, digitization errors are given",
              "in COMMON as maximal of two values",
              "  ( for E>800 - 0.277 keV, 0.120 arb.units)."
            ]
          }
        ],
        "decay-data": [
          {
            "x4_code": "(35-BR-87,55.6SEC)",
            "free_txt": []
          }
        ],
        "en-sec": [
          {
            "x4_code": "(E,N)",
            "free_txt": [
              " Energy of delayed neutrons."
            ]
          }
        ],
        "err-analys": [
          {
            "x4_code": "(E-ERR-DIG)",
            "free_txt": [
              " Digitizing error of E ( X scale)"
            ]
          },
          {
            "x4_code": "(ERR-DIG)",
            "free_txt": [
              "    Digitizing error of DATA ( Y scale)",
              "Quantization errors:",
              "scale X - 1.09 keV for E<800.keV,",
              "          0.546 keV for E>800.keV ;",
              "scale Y - 1.34 arb.units for E<800.keV,",
              "        - 0.0671 arb.units for E>800.keV"
            ]
          }
        ],
        "rel-ref": [
          {
            "x4_code": "(N,,K.Kratz,R,INDC(NDS)-107,103,1979)",
            "free_txt": [
              " The same spectrum is presented on Fig. 18 lower."
            ]
          }
        ],
        "sample": [
          {
            "x4_code": null,
            "free_txt": [
              "Halogens were isolated using ion exchange of halide",
              "ions into AgCl precipitates, interfering elements were",
              "removed by cation exchange. Halogens were separated",
              "from each  other by oxidation-reduction cycle.",
              "Separation time 3.5 sec after the end of irradiation.",
              "Mass < 0.05g."
            ]
          }
        ],
        "status": [
          {
            "x4_code": "(CURVE)",
            "free_txt": [
              " Fig.1 lower of J,NP/A,317,335,1979",
              " Fig.1 lower of C,76CORSICA,,304,1976 and",
              " Fig.2 of J,NP/A,293,410,1977 -           E < 800keV"
            ]
          }
        ]
      }
    },
    "004": {
      "0": {
        "analysis": [
          {
            "x4_code": null,
            "free_txt": [
              "Data from 400 experiments."
            ]
          }
        ],
        "comment": [
          {
            "x4_code": null,
            "free_txt": [
              "- Of compiler.  For REL-REF of H.Franz+ (free text) .",
              "In CINDA this ref. is given as",
              "  J,JPR/C,33,31 of 197208 Franz+ .",
              "In J,JPR/C,vol.33, iss.C5 on page 31 and",
              "in J,JPR,vol.33, page 31",
              "there are different articles of different authors",
              "S.A.Hjorth+ ( pages 23-35 in JPR),",
              "R.Balian+ ( pages 17-32 in JPR/C).",
              "- Of compiler. On Fig.1 upper there is a misprint on",
              "linear scale Y : 1400. instead of 1200.",
              "Data were digitized for Y scale with 1200. instead of",
              "1400. units."
            ]
          }
        ],
        "decay-data": [
          {
            "x4_code": "(33-AS-85,2.05SEC)",
            "free_txt": []
          }
        ],
        "en-sec": [
          {
            "x4_code": "(E,N)",
            "free_txt": [
              " Energy of delayed neutrons."
            ]
          }
        ],
        "err-analys": [
          {
            "x4_code": "(E-ERR-DIG)",
            "free_txt": [
              " Digitizing error of E ( X scale)"
            ]
          },
          {
            "x4_code": "(ERR-DIG)",
            "free_txt": [
              "    Digitizing error of DATA ( Y scale)",
              "Quantization errors:",
              "scale X - 1.67 keV,",
              "scale Y - 2.11 arb.units for E<2000.keV,",
              "          0.85 for E>2000.keV"
            ]
          }
        ],
        "rel-ref": [
          {
            "x4_code": "(N,,K.Kratz,R,INDC(NDS)-107,103,1979)",
            "free_txt": [
              " Spectrum is presented on Figs. 18upper and Fig.27",
              "from two earlier publications, respectively:"
            ]
          },
          {
            "x4_code": "(N,,F.M.Nuh+,J,NP/A,293,410,1977)",
            "free_txt": [
              " -first ref.",
              " Second ref.:",
              "  is given",
              " - in J,PRL,33,859,1974 of H.Franz+ as",
              " H.Franz,G.Herrmann,J.-V.Kratz,K.-L.Kratz,J.Phys.",
              "  (Paris),Collog.33,C5-31,1972",
              " - in INDC-NDS-0107,103 of K.Kratz+ as",
              " H.Franz,G.Herrmann,J.-V.Kratz,K.-L.Kratz,J.Phys.,",
              "     33 (1972) C5-31"
            ]
          }
        ],
        "sample": [
          {
            "x4_code": null,
            "free_txt": [
              " Arsenic was chemically isolated using volatilization",
              "procedure. Radioactive contamination < 0.1 %."
            ]
          }
        ],
        "status": [
          {
            "x4_code": "(CURVE)",
            "free_txt": [
              " Fig.1 upper of J,NP/A,317,335,1979",
              " Fig.2 of C,76CORSICA,,304,1976 - E < 1600keV"
            ]
          }
        ]
      }
    },
    "005": {
      "0": {
        "analysis": [
          {
            "x4_code": null,
            "free_txt": [
              "Data from 210 experiments."
            ]
          }
        ],
        "comment": [
          {
            "x4_code": null,
            "free_txt": [
              "Of compiler. On Fig.2 upper there is two energy ranges-",
              "data were digitized for each range separately;",
              "digitizing errors are given in COMMON block as maximal",
              "of two values ( minimal - 0.547 keV, 0.124 arb.units).",
              "At energy range E>2000.keV there are lot of confluent",
              "lines - so digitized data are rather raw."
            ]
          }
        ],
        "decay-data": [
          {
            "x4_code": "(51-SB-135,1.71SEC)",
            "free_txt": []
          }
        ],
        "en-sec": [
          {
            "x4_code": "(E,N)",
            "free_txt": [
              " Energy of delayed neutrons."
            ]
          }
        ],
        "err-analys": [
          {
            "x4_code": "(E-ERR-DIG)",
            "free_txt": [
              " Digitizing error of E ( X scale)"
            ]
          },
          {
            "x4_code": "(ERR-DIG)",
            "free_txt": [
              "    Digitizing error of DATA ( Y scale)",
              "Quantization errors:",
              "scale X - 1.43 keV for E<2000.keV,",
              "          1.21 keV for E>2000.keV;",
              "scale Y - 0.16 arb.units for E<2000.keV,",
              "          0.078 arb.units for E>2000.keV."
            ]
          }
        ],
        "rel-ref": [
          {
            "x4_code": "(N,,K.Kratz,R,INDC(NDS)-107,103,1979)",
            "free_txt": [
              " The same spectrum is presented on Fig. 18 upper."
            ]
          }
        ],
        "sample": [
          {
            "x4_code": null,
            "free_txt": [
              " Antimony was chemically isolated using volatilization",
              "procedure. Radioactive contamination < 0.1 %."
            ]
          }
        ],
        "status": [
          {
            "x4_code": "(CURVE)",
            "free_txt": [
              " Fig.2 upper of J,NP/A,317,335,1979",
              " Fig.4 of C,76CORSICA,,304,1976 - E < 2100keV"
            ]
          }
        ]
      }
    },
    "006": {
      "0": {
        "decay-data": [
          {
            "x4_code": "(33-AS-85,2.05SEC)",
            "free_txt": []
          }
        ],
        "en-sec": [
          {
            "x4_code": "(E,N)",
            "free_txt": [
              " Neutron kinetic energy corrected for recoil",
              "energy.",
              "  LVL-INI - Energy of neutron emitting Se-85 level ."
            ]
          }
        ],
        "sample": [
          {
            "x4_code": null,
            "free_txt": [
              " Arsenic was chemically isolated using volatilization",
              "procedure. Radioactive contamination < 0.1 %."
            ]
          }
        ],
        "status": [
          {
            "x4_code": "(TABLE)",
            "free_txt": [
              " Table 3 of J,NP/A,317,335,1979"
            ]
          }
        ]
      }
    },
    "007": {
      "0": {
        "decay-data": [
          {
            "x4_code": "(51-SB-135,1.71SEC)",
            "free_txt": []
          }
        ],
        "en-sec": [
          {
            "x4_code": "(E,N)",
            "free_txt": [
              " Neutron kinetic energy corrected for recoil",
              "energy.",
              "  LVL-INI - Energy of neutron emitting Te-135 level ."
            ]
          }
        ],
        "sample": [
          {
            "x4_code": null,
            "free_txt": [
              " Antimony was chemically isolated using volatilization",
              "procedure. Radioactive contamination < 0.1 %."
            ]
          }
        ],
        "status": [
          {
            "x4_code": "(TABLE)",
            "free_txt": [
              " Table 4 of J,NP/A,317,335,1979",
              " Table 2 of C,76CORSICA,,304,1976 - prelim.data."
            ]
          }
        ]
      }
    },
    "008": {
      "0": {
        "analysis": [
          {
            "x4_code": null,
            "free_txt": [
              "Mean values from two independent measurements:"
            ]
          }
        ],
        "decay-data": [
          {
            "x4_code": "(33-AS-85,2.05SEC)",
            "free_txt": []
          }
        ],
        "en-sec": [
          {
            "x4_code": "(E-LVL-NM,34-SE-84)",
            "free_txt": [
              " Energy of final Se-84 level",
              "  (after neutron emission)"
            ]
          }
        ],
        "err-analys": [
          {
            "x4_code": "(DATA-ERR)",
            "free_txt": [
              " Not specified."
            ]
          }
        ],
        "rel-ref": [
          {
            "x4_code": "(R,,J.-V.Kratz+,J,NP/A,250,13,1975)",
            "free_txt": []
          },
          {
            "x4_code": "(R,,W.Rudolph,T,RUDOLPH,1976)",
            "free_txt": [
              " Doctoral Dissertation,",
              "University Mainz."
            ]
          }
        ],
        "status": [
          {
            "x4_code": "(TABLE)",
            "free_txt": [
              " Table 2 of J,NP/A,317,335,1979"
            ]
          }
        ]
      }
    },
    "009": {
      "0": {
        "decay-data": [
          {
            "x4_code": "(51-SB-135,1.71SEC)",
            "free_txt": []
          }
        ],
        "en-sec": [
          {
            "x4_code": "(E-LVL-NM,52-TE-134)",
            "free_txt": [
              " Energy of final Te-134 level",
              "  (after neutron emission)"
            ]
          }
        ],
        "err-analys": [
          {
            "x4_code": "(DATA-ERR)",
            "free_txt": [
              " Not specified."
            ]
          }
        ],
        "rel-ref": [
          {
            "x4_code": "(O,,W.Rudolph,T,RUDOLPH,1976)",
            "free_txt": [
              " Doctoral Dissertation,",
              "University Mainz."
            ]
          }
        ],
        "status": [
          {
            "x4_code": "(TABLE)",
            "free_txt": [
              " Table 2 o,NP/A,317,335,1979"
            ]
          }
        ]
      }
    },
    "010": {
      "0": {
        "add-res": [
          {
            "x4_code": "(DECAY)",
            "free_txt": [
              " Absolute gamma intensities from decay of Br-87",
              "Absolute intensity was obtained by comparison of areas",
              "of 1420 keV line from Br-87 and 403 keV line from Kr-87",
              "decay ; abs.intensity 0.483%/decay for 403 keV",
              "transition from A.Shihab-Eldin+,J,NP/A,160,33,1970 was",
              "used .",
              "Three lines 5543.6, 5659.3, 5720 keV are not confirmed.",
              "        Table 2 of J,NP/A,293,410,1977",
              " E-gamma    E-ERR      Intensity  Error      Flag",
              " keV        keV        %/DECAY    %/DECAY",
              "  421.82     0.06        4.87      0.02",
              "  523.97     0.07        7.82      0.02",
              " 1360.89     0.15        4.80      0.05",
              " 1419.83     0.09       31.2       0.3",
              " 1476.19     0.08       11.4       0.3",
              " 1577.73     0.08        8.35      0.25",
              " 1881.29     0.12        4.06      0.31",
              " 2005.55     0.11        7.52      0.56",
              " 2071.56     0.11        3.40      0.10",
              " 2997.63     0.15        3.21      0.12",
              " 4181.26     0.11        6.43      0.47",
              " 5455.63     0.64        0.35      0.04       1.",
              " 5474.18     0.28        0.59      0.05       1.",
              " 5588.55     0.96        0.022     0.006",
              " 5595.10     0.50        0.094     0.016",
              " 5635.10     0.49        0.094     0.028",
              " 5672.99     0.39        0.086     0.014      1.",
              " 5686.93     0.35        0.156     0.062",
              " 5794.23     0.80        0.078     0.022      1.",
              " Flag:",
              " 1. Not definitely assigned to Br-87 due to large",
              "    uncertainty.",
              " 2. Assignment to Br-87 through private communication",
              "     with Talbert, 1973"
            ]
          }
        ],
        "decay-data": [
          {
            "x4_code": "(35-BR-87,55.SEC)",
            "free_txt": []
          }
        ],
        "en-sec": [
          {
            "x4_code": "(E,N)",
            "free_txt": [
              " Energy of delayed neutrons."
            ]
          }
        ],
        "err-analys": [
          {
            "x4_code": "(DATA-ERR)",
            "free_txt": [
              " Type of uncertainty is not explained in the",
              " article."
            ]
          }
        ],
        "misc-col": [
          {
            "x4_code": "(MISC)",
            "free_txt": [
              " Transition energy corrected for recoil."
            ]
          }
        ],
        "status": [
          {
            "x4_code": "(TABLE)",
            "free_txt": [
              " Table 1 of J,NP/A,293,410,1977",
              " Prelim.data in Table 9 of P,MAINZ-75,55,1976"
            ]
          }
        ]
      }
    },
    "011": {
      "0": {
        "add-res": [
          {
            "x4_code": null,
            "free_txt": [
              "- Kr-87 level energies derived from neutron and gamma",
              "spectra ( this experiment) and data of Tovedal+ are in",
              "Table 3 of J,NP/A,293,410,1977 :",
              "from neutron           from gamma",
              " 5533.4+-1.8           (5530.8+-0.3)",
              "                       5543.8+-0.8",
              " 5556.0+-1.8",
              " 5568.0+-2.5",
              " 5586.8+-2.0           5588.8+-1.0",
              " 5596.0+-2.8           5595.3+-0.5",
              " 5637.7+-3.0           5635.3+-0.5",
              " 5652.6+-2.1",
              " 5664.4+-2.7           5659.5+-0.8",
              "                       5673.2+-0.4",
              " 5686.4+-3.5           5687.1+-0.4",
              " 5699.1+-3.3",
              " 5728.8+-2.6           5720.+-3.",
              " 5766.1+-3.6",
              " 5774.4+-2.7",
              "                       5794.4+-0.8",
              " 5831.2+-2.6           5821.+-5.",
              " 5858.4+-3.3",
              " 5906.0+-3.3",
              " 5921.1+-3.3",
              " 5927.3+-3.3",
              " 5958.0+-2.6",
              " 6160.8+-4.0",
              " 6191.1+-4.3"
            ]
          }
        ],
        "decay-data": [
          {
            "x4_code": "(35-BR-87,55.SEC)",
            "free_txt": []
          }
        ],
        "en-sec": [
          {
            "x4_code": "(E,N)",
            "free_txt": [
              " Energy of delayed neutrons."
            ]
          }
        ],
        "err-analys": [
          {
            "x4_code": "(DATA-ERR)",
            "free_txt": [
              " Type of uncertainty is not explained in the",
              " article."
            ]
          }
        ],
        "monit-ref": [
          {
            "x4_code": "(,L.Tomlinson+,J,AND,12,179,1973)",
            "free_txt": [
              "  Pn=(2.3+-0.2) %"
            ]
          }
        ],
        "monitor": [
          {
            "x4_code": "((MONIT)35-BR-87(0,B-)36-KR-87,,PN)",
            "free_txt": []
          }
        ],
        "rel-ref": [
          {
            "x4_code": "(A,,H.Tovedal+,J,NP/A,252,253,1975)",
            "free_txt": [
              "  Data of Shalev&Rudstam as reported in this ref."
            ]
          }
        ],
        "status": [
          {
            "x4_code": "(TABLE)",
            "free_txt": [
              " Table 1 of J,NP/A,293,410,1977"
            ]
          },
          {
            "x4_code": "(DEP,23241010)",
            "free_txt": [
              " Relative intensities."
            ]
          }
        ]
      }
    },
    "012": {
      "0": {
        "decay-data": [
          {
            "x4_code": "(53-I-137,24.5SEC)",
            "free_txt": []
          }
        ],
        "en-sec": [
          {
            "x4_code": "(E,N)",
            "free_txt": [
              " Energy of delayed neutrons."
            ]
          }
        ],
        "err-analys": [
          {
            "x4_code": "(DATA-ERR)",
            "free_txt": [
              " Type of uncertainty is not explained in the",
              " article."
            ]
          }
        ],
        "status": [
          {
            "x4_code": "(TABLE)",
            "free_txt": [
              " Table 9 of P,MAINZ-75,55,1976"
            ]
          }
        ]
      }
    },
    "013": {
      "0": {
        "comment": [
          {
            "x4_code": null,
            "free_txt": [
              " Of authors. Peaks are at 364, 476, 564, 828, 932,",
              " 1124 keV neutron energy."
            ]
          }
        ],
        "en-sec": [
          {
            "x4_code": "(E,N)",
            "free_txt": [
              " Energy of delayed neutrons."
            ]
          }
        ],
        "err-analys": [
          {
            "x4_code": null,
            "free_txt": [
              " Quantization errors ( one pixel) :",
              " scale X - 1.95  keV, scale Y - 1.188 arb.units."
            ]
          }
        ],
        "status": [
          {
            "x4_code": "(CURVE)",
            "free_txt": [
              " Fig.23 of P,MAINZ-75,55,1976"
            ]
          }
        ]
      }
    }
  }
}