{
  "entry": "F0891",
  "last_updated": "2009-09-02",
  "number_of_revisions": "1",
  "histories": [
    {
      "x4_code": "(20090518C)",
      "free_txt": []
    }
  ],
  "bib_record": {
    "title": "Statistical analysis of the reaction 51V(p,p)51V.",
    "authors": [
      {
        "name": "C.M.Lamba"
      },
      {
        "name": "N.Sarma"
      },
      {
        "name": "N.S.Thampi"
      },
      {
        "name": "D.K.Sood"
      },
      {
        "name": "V.K.Deshpande"
      }
    ],
    "institutes": [
      {
        "x4_code": "(3INDTRM)",
        "free_txt": ""
      },
      {
        "x4_code": "(3INDITK)",
        "free_txt": ""
      }
    ],
    "references": [
      {
        "x4_code": "(J,NP/A,110,111,1968)",
        "free_txt": [],
        "publication_year": "1968",
        "pointer": "0"
      }
    ],
    "facilities": [
      {
        "x4_code": "(VDG,3INDTRM)",
        "free_txt": [
          " The 5.5 MeV"
        ],
        "pointer": "0",
        "facility_type": "(VDG)",
        "institute": "(3INDTRM)"
      }
    ]
  },
  "reactions": {
    "002": {
      "0": {
        "x4_code": "(23-V-51(P,EL)23-V-51,,DA)",
        "children": [
          {
            "code": [
              "23-V-51",
              [
                "P,EL"
              ],
              "23-V-51,,DA"
            ],
            "type": null,
            "target": "23-V-51",
            "process": "P,EL",
            "sf49": "23-V-51,,DA",
            "sf4": "23-V-51",
            "sf5": null,
            "sf6": "DA",
            "sf7": null,
            "sf8": null,
            "sf9": null
          }
        ],
        "type": null,
        "free_text": ""
      }
    }
  },
  "data_tables": {
    "001": {
      "common": {
        "heads": [
          "ERR-SYS",
          "EN-RSL",
          "EN-ERR-DIG",
          "ERR-DIG"
        ],
        "units": [
          "PER-CENT",
          "KEV",
          "MEV",
          "MB/SR"
        ],
        "data": [
          [
            15.0
          ],
          [
            1.0
          ],
          [
            0.001
          ],
          [
            0.465
          ]
        ]
      }
    },
    "002": {
      "common": null,
      "data": {
        "heads": [
          "ANG",
          "EN",
          "DATA"
        ],
        "units": [
          "ADEG",
          "MEV",
          "MB/SR"
        ],
        "data": [
          [
            100.0,
            100.0,
            100.0,
            100.0,
            100.0,
            100.0,
            100.0,
            100.0,
            100.0,
            100.0,
            100.0,
            100.0,
            100.0,
            100.0,
            100.0,
            100.0,
            100.0,
            100.0,
            100.0,
            100.0,
            100.0,
            100.0,
            100.0,
            100.0,
            100.0,
            100.0,
            100.0,
            100.0,
            100.0,
            100.0,
            100.0,
            100.0,
            100.0,
            100.0,
            100.0,
            100.0,
            100.0,
            100.0,
            100.0,
            100.0,
            100.0,
            100.0,
            100.0,
            100.0,
            100.0,
            100.0,
            100.0,
            100.0,
            100.0,
            100.0,
            100.0,
            100.0,
            100.0,
            100.0,
            100.0,
            100.0,
            100.0,
            100.0,
            100.0,
            100.0,
            100.0,
            100.0,
            100.0,
            100.0,
            100.0,
            100.0,
            100.0,
            100.0,
            100.0,
            100.0,
            100.0,
            100.0,
            100.0,
            100.0,
            100.0,
            100.0,
            100.0,
            100.0,
            100.0,
            100.0,
            100.0,
            100.0,
            100.0,
            100.0,
            100.0,
            100.0,
            100.0,
            100.0,
            100.0,
            100.0,
            100.0,
            100.0,
            100.0,
            100.0,
            100.0,
            100.0,
            100.0,
            100.0,
            100.0,
            100.0,
            100.0,
            100.0,
            100.0,
            100.0,
            100.0,
            100.0,
            100.0,
            100.0,
            100.0,
            100.0,
            100.0,
            100.0,
            100.0,
            100.0,
            100.0,
            100.0,
            100.0,
            100.0,
            100.0,
            100.0,
            100.0,
            100.0,
            100.0,
            100.0,
            100.0,
            100.0,
            100.0,
            100.0,
            100.0,
            100.0,
            100.0,
            100.0,
            100.0,
            100.0,
            100.0,
            100.0,
            100.0,
            100.0,
            100.0,
            100.0,
            100.0,
            100.0,
            100.0,
            100.0,
            100.0,
            100.0,
            100.0,
            100.0,
            100.0,
            100.0,
            100.0,
            100.0,
            100.0,
            100.0,
            100.0,
            100.0,
            100.0,
            100.0,
            100.0,
            100.0,
            100.0,
            100.0,
            100.0,
            100.0,
            100.0,
            100.0,
            100.0,
            100.0,
            100.0,
            100.0,
            100.0,
            100.0,
            100.0,
            100.0,
            100.0,
            100.0,
            100.0,
            100.0,
            100.0,
            100.0,
            100.0,
            100.0,
            100.0,
            100.0,
            100.0,
            100.0,
            100.0,
            100.0,
            100.0,
            100.0,
            100.0,
            100.0,
            100.0,
            100.0,
            100.0,
            100.0,
            100.0,
            100.0,
            100.0,
            100.0,
            100.0,
            100.0,
            100.0,
            100.0,
            100.0,
            100.0,
            100.0,
            100.0,
            100.0,
            100.0,
            100.0,
            100.0,
            100.0,
            100.0,
            100.0,
            100.0,
            100.0,
            100.0,
            100.0,
            100.0,
            100.0,
            100.0,
            100.0,
            100.0,
            100.0,
            100.0,
            100.0,
            100.0,
            100.0,
            100.0,
            100.0,
            100.0,
            100.0,
            100.0,
            100.0,
            100.0,
            100.0,
            100.0,
            100.0,
            100.0,
            100.0,
            100.0,
            100.0,
            100.0,
            100.0,
            100.0,
            100.0,
            100.0,
            100.0,
            100.0,
            100.0,
            100.0,
            100.0,
            100.0,
            100.0,
            100.0,
            100.0,
            100.0,
            100.0,
            100.0,
            100.0,
            100.0,
            100.0,
            100.0,
            100.0,
            100.0,
            100.0,
            100.0,
            100.0,
            100.0,
            100.0,
            100.0,
            100.0,
            100.0,
            100.0,
            100.0,
            100.0,
            100.0,
            100.0,
            100.0,
            100.0,
            100.0,
            100.0,
            100.0,
            100.0,
            100.0,
            100.0,
            100.0,
            100.0,
            100.0,
            100.0,
            100.0,
            100.0,
            100.0,
            100.0,
            100.0,
            100.0,
            100.0,
            100.0,
            100.0,
            100.0,
            100.0,
            100.0,
            100.0,
            100.0,
            100.0,
            100.0,
            100.0,
            100.0,
            100.0,
            100.0,
            100.0,
            100.0,
            100.0,
            120.0,
            120.0,
            120.0,
            120.0,
            120.0,
            120.0,
            120.0,
            120.0,
            120.0,
            120.0,
            120.0,
            120.0,
            120.0,
            120.0,
            120.0,
            120.0,
            120.0,
            120.0,
            120.0,
            120.0,
            120.0,
            120.0,
            120.0,
            120.0,
            120.0,
            120.0,
            120.0,
            120.0,
            120.0,
            120.0,
            120.0,
            120.0,
            120.0,
            120.0,
            120.0,
            120.0,
            120.0,
            120.0,
            120.0,
            120.0,
            120.0,
            120.0,
            120.0,
            120.0,
            120.0,
            120.0,
            120.0,
            120.0,
            120.0,
            120.0,
            120.0,
            120.0,
            120.0,
            120.0,
            120.0,
            120.0,
            120.0,
            120.0,
            120.0,
            120.0,
            120.0,
            120.0,
            120.0,
            120.0,
            120.0,
            120.0,
            120.0,
            120.0,
            120.0,
            120.0,
            120.0,
            120.0,
            120.0,
            120.0,
            120.0,
            120.0,
            120.0,
            120.0,
            120.0,
            120.0,
            120.0,
            120.0,
            120.0,
            120.0,
            120.0,
            120.0,
            120.0,
            120.0,
            120.0,
            120.0,
            120.0,
            120.0,
            120.0,
            120.0,
            120.0,
            120.0,
            120.0,
            120.0,
            120.0,
            120.0,
            120.0,
            120.0,
            120.0,
            120.0,
            120.0,
            120.0,
            120.0,
            120.0,
            120.0,
            120.0,
            120.0,
            120.0,
            120.0,
            120.0,
            120.0,
            120.0,
            120.0,
            120.0,
            120.0,
            120.0,
            120.0,
            120.0,
            120.0,
            120.0,
            120.0,
            120.0,
            120.0,
            120.0,
            120.0,
            120.0,
            120.0,
            120.0,
            120.0,
            120.0,
            120.0,
            120.0,
            120.0,
            120.0,
            120.0,
            120.0,
            120.0,
            120.0,
            120.0,
            120.0,
            120.0,
            120.0,
            120.0,
            120.0,
            120.0,
            120.0,
            120.0,
            120.0,
            120.0,
            120.0,
            120.0,
            120.0,
            120.0,
            120.0,
            120.0,
            120.0,
            120.0,
            120.0,
            120.0,
            120.0,
            120.0,
            120.0,
            120.0,
            120.0,
            120.0,
            120.0,
            120.0,
            120.0,
            120.0,
            120.0,
            120.0,
            120.0,
            120.0,
            120.0,
            120.0,
            120.0,
            120.0,
            120.0,
            120.0,
            120.0,
            120.0,
            120.0,
            120.0,
            120.0,
            120.0,
            120.0,
            120.0,
            120.0,
            120.0,
            120.0,
            120.0,
            120.0,
            120.0,
            120.0,
            120.0,
            120.0,
            120.0,
            120.0,
            120.0,
            120.0,
            120.0,
            120.0,
            120.0,
            120.0,
            120.0,
            120.0,
            120.0,
            120.0,
            120.0,
            120.0,
            120.0,
            120.0,
            120.0,
            120.0,
            120.0,
            120.0,
            120.0,
            120.0,
            120.0,
            120.0,
            120.0,
            120.0,
            120.0,
            120.0,
            120.0,
            120.0,
            120.0,
            120.0,
            120.0,
            120.0,
            120.0,
            120.0,
            120.0,
            120.0,
            120.0,
            120.0,
            120.0,
            120.0,
            120.0,
            120.0,
            120.0,
            120.0,
            120.0,
            120.0,
            120.0,
            120.0,
            120.0,
            120.0,
            120.0,
            120.0,
            120.0,
            120.0,
            120.0,
            120.0,
            120.0,
            120.0,
            120.0,
            120.0,
            120.0,
            120.0,
            120.0,
            120.0,
            120.0,
            120.0,
            120.0,
            120.0,
            120.0,
            120.0,
            120.0,
            120.0,
            120.0,
            120.0,
            120.0,
            120.0,
            120.0,
            120.0,
            120.0,
            120.0,
            120.0,
            120.0,
            120.0,
            120.0,
            120.0,
            120.0,
            120.0,
            120.0,
            120.0,
            120.0,
            120.0,
            120.0,
            120.0,
            120.0,
            120.0,
            120.0,
            120.0,
            120.0,
            120.0,
            120.0,
            120.0,
            120.0,
            120.0,
            120.0,
            120.0,
            120.0,
            120.0,
            120.0,
            120.0,
            120.0,
            120.0,
            120.0,
            120.0,
            120.0,
            120.0,
            120.0,
            120.0,
            120.0,
            120.0,
            120.0,
            120.0,
            120.0,
            120.0,
            120.0,
            120.0,
            120.0,
            140.0,
            140.0,
            140.0,
            140.0,
            140.0,
            140.0,
            140.0,
            140.0,
            140.0,
            140.0,
            140.0,
            140.0,
            140.0,
            140.0,
            140.0,
            140.0,
            140.0,
            140.0,
            140.0,
            140.0,
            140.0,
            140.0,
            140.0,
            140.0,
            140.0,
            140.0,
            140.0,
            140.0,
            140.0,
            140.0,
            140.0,
            140.0,
            140.0,
            140.0,
            140.0,
            140.0,
            140.0,
            140.0,
            140.0,
            140.0,
            140.0,
            140.0,
            140.0,
            140.0,
            140.0,
            140.0,
            140.0,
            140.0,
            140.0,
            140.0,
            140.0,
            140.0,
            140.0,
            140.0,
            140.0,
            140.0,
            140.0,
            140.0,
            140.0,
            140.0,
            140.0,
            140.0,
            140.0,
            140.0,
            140.0,
            140.0,
            140.0,
            140.0,
            140.0,
            140.0,
            140.0,
            140.0,
            140.0,
            140.0,
            140.0,
            140.0,
            140.0,
            140.0,
            140.0,
            140.0,
            140.0,
            140.0,
            140.0,
            140.0,
            140.0,
            140.0,
            140.0,
            140.0,
            140.0,
            140.0,
            140.0,
            140.0,
            140.0,
            140.0,
            140.0,
            140.0,
            140.0,
            140.0,
            140.0,
            140.0,
            140.0,
            140.0,
            140.0,
            140.0,
            140.0,
            140.0,
            140.0,
            140.0,
            140.0,
            140.0,
            140.0,
            140.0,
            140.0,
            140.0,
            140.0,
            140.0,
            140.0,
            140.0,
            140.0,
            140.0,
            140.0,
            140.0,
            140.0,
            140.0,
            140.0,
            140.0,
            140.0,
            140.0,
            140.0,
            140.0,
            140.0,
            140.0,
            140.0,
            140.0,
            140.0,
            140.0,
            140.0,
            140.0,
            140.0,
            140.0,
            140.0,
            140.0,
            140.0,
            140.0,
            140.0,
            140.0,
            140.0,
            140.0,
            140.0,
            140.0,
            140.0,
            140.0,
            140.0,
            140.0,
            140.0,
            140.0,
            140.0,
            140.0,
            140.0,
            140.0,
            140.0,
            140.0,
            140.0,
            140.0,
            140.0,
            140.0,
            140.0,
            140.0,
            140.0,
            140.0,
            140.0,
            140.0,
            140.0,
            140.0,
            140.0,
            140.0,
            140.0,
            140.0,
            140.0,
            140.0,
            140.0,
            140.0,
            140.0,
            140.0,
            140.0,
            140.0,
            140.0,
            140.0,
            140.0,
            140.0,
            140.0,
            140.0,
            140.0,
            140.0,
            140.0,
            140.0,
            140.0,
            140.0,
            140.0,
            140.0,
            140.0,
            140.0,
            140.0,
            140.0,
            140.0,
            140.0,
            140.0,
            140.0,
            140.0,
            140.0,
            140.0,
            140.0,
            140.0,
            140.0,
            140.0,
            140.0,
            140.0,
            140.0,
            140.0,
            140.0,
            140.0,
            140.0,
            140.0,
            140.0,
            140.0,
            140.0,
            140.0,
            140.0,
            140.0,
            140.0,
            140.0,
            140.0,
            140.0,
            140.0,
            140.0,
            140.0,
            140.0,
            140.0,
            140.0,
            140.0,
            140.0,
            140.0,
            140.0,
            140.0,
            140.0,
            140.0,
            140.0,
            140.0,
            140.0,
            140.0,
            140.0,
            140.0,
            140.0,
            140.0,
            140.0,
            140.0,
            140.0,
            140.0,
            140.0,
            140.0,
            140.0,
            140.0,
            140.0,
            140.0,
            140.0,
            140.0,
            140.0,
            140.0,
            140.0,
            140.0,
            140.0,
            140.0,
            140.0,
            140.0,
            140.0,
            140.0,
            140.0,
            140.0,
            140.0,
            140.0,
            140.0,
            140.0,
            140.0,
            140.0,
            140.0,
            140.0,
            140.0,
            140.0,
            140.0,
            140.0,
            140.0,
            140.0,
            140.0,
            140.0,
            140.0,
            140.0,
            140.0,
            140.0,
            140.0,
            140.0,
            140.0,
            140.0,
            140.0,
            140.0,
            140.0,
            140.0,
            140.0,
            140.0,
            140.0,
            140.0,
            140.0,
            140.0,
            140.0,
            140.0,
            140.0,
            160.0,
            160.0,
            160.0,
            160.0,
            160.0,
            160.0,
            160.0,
            160.0,
            160.0,
            160.0,
            160.0,
            160.0,
            160.0,
            160.0,
            160.0,
            160.0,
            160.0,
            160.0,
            160.0,
            160.0,
            160.0,
            160.0,
            160.0,
            160.0,
            160.0,
            160.0,
            160.0,
            160.0,
            160.0,
            160.0,
            160.0,
            160.0,
            160.0,
            160.0,
            160.0,
            160.0,
            160.0,
            160.0,
            160.0,
            160.0,
            160.0,
            160.0,
            160.0,
            160.0,
            160.0,
            160.0,
            160.0,
            160.0,
            160.0,
            160.0,
            160.0,
            160.0,
            160.0,
            160.0,
            160.0,
            160.0,
            160.0,
            160.0,
            160.0,
            160.0,
            160.0,
            160.0,
            160.0,
            160.0,
            160.0,
            160.0,
            160.0,
            160.0,
            160.0,
            160.0,
            160.0,
            160.0,
            160.0,
            160.0,
            160.0,
            160.0,
            160.0,
            160.0,
            160.0,
            160.0,
            160.0,
            160.0,
            160.0,
            160.0,
            160.0,
            160.0,
            160.0,
            160.0,
            160.0,
            160.0,
            160.0,
            160.0,
            160.0,
            160.0,
            160.0,
            160.0,
            160.0,
            160.0,
            160.0,
            160.0,
            160.0,
            160.0,
            160.0,
            160.0,
            160.0,
            160.0,
            160.0,
            160.0,
            160.0,
            160.0,
            160.0,
            160.0,
            160.0,
            160.0,
            160.0,
            160.0,
            160.0,
            160.0,
            160.0,
            160.0,
            160.0,
            160.0,
            160.0,
            160.0,
            160.0,
            160.0,
            160.0,
            160.0,
            160.0,
            160.0,
            160.0,
            160.0,
            160.0,
            160.0,
            160.0,
            160.0,
            160.0,
            160.0,
            160.0,
            160.0,
            160.0,
            160.0,
            160.0,
            160.0,
            160.0,
            160.0,
            160.0,
            160.0,
            160.0,
            160.0,
            160.0,
            160.0,
            160.0,
            160.0,
            160.0,
            160.0,
            160.0,
            160.0,
            160.0,
            160.0,
            160.0,
            160.0,
            160.0,
            160.0,
            160.0,
            160.0,
            160.0,
            160.0,
            160.0,
            160.0,
            160.0,
            160.0,
            160.0,
            160.0,
            160.0,
            160.0,
            160.0,
            160.0,
            160.0,
            160.0,
            160.0,
            160.0,
            160.0,
            160.0,
            160.0,
            160.0,
            160.0,
            160.0,
            160.0,
            160.0,
            160.0,
            160.0,
            160.0,
            160.0,
            160.0,
            160.0,
            160.0,
            160.0,
            160.0,
            160.0,
            160.0,
            160.0,
            160.0,
            160.0,
            160.0,
            160.0,
            160.0,
            160.0,
            160.0,
            160.0,
            160.0,
            160.0,
            160.0,
            160.0,
            160.0,
            160.0,
            160.0,
            160.0,
            160.0,
            160.0,
            160.0,
            160.0,
            160.0,
            160.0,
            160.0,
            160.0,
            160.0,
            160.0,
            160.0,
            160.0,
            160.0,
            160.0,
            160.0,
            160.0,
            160.0,
            160.0,
            160.0,
            160.0,
            160.0,
            160.0,
            160.0,
            160.0,
            160.0,
            160.0,
            160.0,
            160.0,
            160.0,
            160.0,
            160.0,
            160.0,
            160.0,
            160.0,
            160.0,
            160.0,
            160.0,
            160.0,
            160.0,
            160.0,
            160.0,
            160.0,
            160.0,
            160.0,
            160.0,
            160.0,
            160.0,
            160.0,
            160.0,
            160.0,
            160.0,
            160.0,
            160.0,
            160.0,
            160.0,
            160.0,
            160.0,
            160.0,
            160.0,
            160.0,
            160.0,
            160.0,
            160.0,
            160.0,
            160.0,
            160.0,
            160.0,
            160.0,
            160.0,
            160.0,
            160.0,
            160.0,
            160.0,
            160.0,
            160.0,
            160.0,
            160.0,
            160.0,
            160.0,
            160.0,
            160.0,
            160.0,
            160.0,
            160.0,
            160.0,
            160.0,
            160.0,
            160.0,
            160.0,
            160.0,
            160.0,
            160.0,
            160.0,
            160.0,
            160.0,
            160.0,
            160.0
          ],
          [
            4.0035,
            4.0072,
            4.0149,
            4.0202,
            4.0254,
            4.0299,
            4.036,
            4.0372,
            4.0409,
            4.0461,
            4.0551,
            4.0615,
            4.0666,
            4.0719,
            4.0733,
            4.0735,
            4.0799,
            4.0811,
            4.0823,
            4.0861,
            4.0915,
            4.0965,
            4.1068,
            4.1159,
            4.1201,
            4.1263,
            4.134,
            4.1356,
            4.1432,
            4.1499,
            4.1563,
            4.1641,
            4.1715,
            4.1767,
            4.1806,
            4.186,
            4.1911,
            4.1976,
            4.2091,
            4.2106,
            4.2133,
            4.2172,
            4.2213,
            4.2261,
            4.2302,
            4.234,
            4.2405,
            4.2445,
            4.2458,
            4.2509,
            4.2552,
            4.2614,
            4.2666,
            4.2708,
            4.2769,
            4.2821,
            4.286,
            4.2938,
            4.2977,
            4.3016,
            4.3067,
            4.3096,
            4.3109,
            4.3144,
            4.321,
            4.3248,
            4.3301,
            4.3355,
            4.3454,
            4.353,
            4.3557,
            4.3635,
            4.3703,
            4.3783,
            4.3807,
            4.3859,
            4.3961,
            4.4039,
            4.4081,
            4.4133,
            4.4171,
            4.4209,
            4.4261,
            4.4338,
            4.4391,
            4.4417,
            4.443,
            4.4457,
            4.451,
            4.4576,
            4.4626,
            4.4677,
            4.4738,
            4.4757,
            4.4779,
            4.483,
            4.4882,
            4.4933,
            4.4986,
            4.5063,
            4.509,
            4.5117,
            4.5155,
            4.5167,
            4.522,
            4.5274,
            4.53,
            4.5328,
            4.5336,
            4.536,
            4.5413,
            4.5477,
            4.5518,
            4.5582,
            4.5596,
            4.5636,
            4.5648,
            4.5686,
            4.5713,
            4.5726,
            4.5777,
            4.583,
            4.5871,
            4.5934,
            4.5971,
            4.6011,
            4.6088,
            4.6102,
            4.6116,
            4.6165,
            4.6192,
            4.6193,
            4.6221,
            4.6272,
            4.631,
            4.6361,
            4.64,
            4.6427,
            4.6478,
            4.6518,
            4.6545,
            4.6572,
            4.6624,
            4.666,
            4.6735,
            4.6762,
            4.6813,
            4.6889,
            4.6929,
            4.6983,
            4.7112,
            4.7125,
            4.7188,
            4.7214,
            4.7281,
            4.7383,
            4.7384,
            4.7425,
            4.7461,
            4.7527,
            4.7556,
            4.7621,
            4.7644,
            4.7708,
            4.7762,
            4.7814,
            4.7877,
            4.7905,
            4.7948,
            4.8012,
            4.805,
            4.8115,
            4.8152,
            4.8203,
            4.8242,
            4.8306,
            4.8345,
            4.8396,
            4.8461,
            4.8512,
            4.862,
            4.8646,
            4.8698,
            4.8774,
            4.8815,
            4.8893,
            4.897,
            4.9021,
            4.9032,
            4.9058,
            4.9172,
            4.9227,
            4.9268,
            4.9306,
            4.9383,
            4.9422,
            4.9447,
            4.9485,
            4.957,
            4.9591,
            4.9642,
            4.9667,
            4.9719,
            4.9773,
            4.9799,
            4.9864,
            4.989,
            4.9904,
            4.9982,
            4.9994,
            5.0059,
            5.0085,
            5.019,
            5.0201,
            5.0225,
            5.029,
            5.0364,
            5.0405,
            5.0443,
            5.0483,
            5.051,
            5.0549,
            5.0601,
            5.0613,
            5.0647,
            5.0684,
            5.0746,
            5.0782,
            5.0851,
            5.0897,
            5.0937,
            5.1014,
            5.1053,
            5.1155,
            5.1209,
            5.126,
            5.1299,
            5.1312,
            5.1352,
            5.1402,
            5.1441,
            5.1468,
            5.154,
            5.1572,
            5.1635,
            5.1675,
            5.1742,
            5.1778,
            5.1829,
            5.1882,
            5.1922,
            5.1974,
            5.2049,
            5.2092,
            5.2153,
            5.2196,
            5.2244,
            5.2258,
            5.2336,
            5.2387,
            5.2478,
            5.2542,
            5.2582,
            5.2648,
            5.2701,
            5.2714,
            5.2764,
            5.2819,
            5.2854,
            5.2907,
            5.2947,
            5.2988,
            5.3036,
            5.3074,
            5.3138,
            5.319,
            5.3242,
            5.3282,
            5.3282,
            5.3333,
            5.3347,
            5.3388,
            5.3451,
            5.3489,
            5.3539,
            5.3578,
            5.3643,
            5.3718,
            5.3756,
            5.3787,
            5.3916,
            5.4007,
            5.4059,
            5.4084,
            5.4124,
            5.415,
            5.4175,
            5.4187,
            5.429,
            5.4343,
            5.437,
            5.4397,
            5.4448,
            5.4503,
            5.454,
            5.4619,
            5.4652,
            5.4705,
            5.4756,
            5.481,
            5.4861,
            5.4914,
            5.4942,
            5.5007,
            4.003,
            4.0056,
            4.0107,
            4.0131,
            4.0184,
            4.0248,
            4.0277,
            4.0283,
            4.0325,
            4.035,
            4.0375,
            4.0427,
            4.0478,
            4.0543,
            4.0581,
            4.0645,
            4.0699,
            4.0725,
            4.0802,
            4.0841,
            4.0881,
            4.0932,
            4.0969,
            4.1046,
            4.1086,
            4.1127,
            4.1181,
            4.1242,
            4.1305,
            4.1321,
            4.1386,
            4.1428,
            4.1497,
            4.1529,
            4.1541,
            4.158,
            4.1658,
            4.1704,
            4.1745,
            4.1787,
            4.184,
            4.1874,
            4.1903,
            4.1994,
            4.2044,
            4.2108,
            4.2149,
            4.2178,
            4.2253,
            4.2294,
            4.2345,
            4.2396,
            4.2436,
            4.2512,
            4.2566,
            4.2617,
            4.2629,
            4.2655,
            4.2707,
            4.2772,
            4.2811,
            4.285,
            4.2875,
            4.2897,
            4.2915,
            4.2942,
            4.302,
            4.3058,
            4.311,
            4.3122,
            4.3158,
            4.321,
            4.3262,
            4.3303,
            4.3357,
            4.3374,
            4.3392,
            4.3457,
            4.3496,
            4.3585,
            4.3627,
            4.3666,
            4.3705,
            4.3756,
            4.3797,
            4.3834,
            4.391,
            4.3963,
            4.4028,
            4.4082,
            4.4109,
            4.4186,
            4.4236,
            4.4287,
            4.4325,
            4.4377,
            4.4429,
            4.443,
            4.4483,
            4.4522,
            4.4588,
            4.4599,
            4.4637,
            4.4664,
            4.4736,
            4.478,
            4.4832,
            4.4883,
            4.492,
            4.4976,
            4.5015,
            4.5066,
            4.5117,
            4.5167,
            4.5219,
            4.5288,
            4.5337,
            4.5387,
            4.544,
            4.5479,
            4.5557,
            4.5584,
            4.5636,
            4.5688,
            4.5713,
            4.5777,
            4.583,
            4.587,
            4.5933,
            4.5958,
            4.5998,
            4.6011,
            4.6062,
            4.6087,
            4.6127,
            4.6192,
            4.6247,
            4.627,
            4.6334,
            4.6375,
            4.6454,
            4.6491,
            4.6529,
            4.6556,
            4.662,
            4.6673,
            4.6697,
            4.6733,
            4.6786,
            4.681,
            4.6848,
            4.6877,
            4.6942,
            4.6968,
            4.7032,
            4.7084,
            4.7135,
            4.7198,
            4.7252,
            4.7304,
            4.7356,
            4.737,
            4.7397,
            4.7447,
            4.7498,
            4.7551,
            4.7565,
            4.7579,
            4.7621,
            4.7697,
            4.7734,
            4.7772,
            4.7849,
            4.7927,
            4.7954,
            4.7995,
            4.8046,
            4.811,
            4.8161,
            4.8212,
            4.8237,
            4.8275,
            4.8327,
            4.8379,
            4.8443,
            4.847,
            4.856,
            4.8601,
            4.8642,
            4.8705,
            4.872,
            4.8796,
            4.8849,
            4.8952,
            4.8976,
            4.9041,
            4.9092,
            4.9132,
            4.9207,
            4.9274,
            4.9327,
            4.9354,
            4.9404,
            4.9494,
            4.9543,
            4.9621,
            4.9656,
            4.9715,
            4.9781,
            4.9808,
            4.9873,
            4.9925,
            4.9964,
            5.0017,
            5.0067,
            5.0106,
            5.0171,
            5.0223,
            5.026,
            5.0322,
            5.0374,
            5.0408,
            5.0462,
            5.0528,
            5.0569,
            5.0608,
            5.0685,
            5.0705,
            5.0753,
            5.0776,
            5.0792,
            5.0827,
            5.0864,
            5.0903,
            5.0957,
            5.1023,
            5.1068,
            5.1112,
            5.1181,
            5.119,
            5.1213,
            5.1266,
            5.1278,
            5.1341,
            5.1375,
            5.1421,
            5.1472,
            5.1512,
            5.1565,
            5.1605,
            5.163,
            5.168,
            5.1731,
            5.177,
            5.1798,
            5.1837,
            5.1872,
            5.1936,
            5.1976,
            5.2041,
            5.2093,
            5.2131,
            5.2171,
            5.2223,
            5.2263,
            5.234,
            5.238,
            5.2444,
            5.2521,
            5.2522,
            5.2587,
            5.2611,
            5.2652,
            5.2705,
            5.272,
            5.2773,
            5.2834,
            5.2847,
            5.2875,
            5.2902,
            5.2939,
            5.299,
            5.3041,
            5.3069,
            5.313,
            5.318,
            5.3248,
            5.3271,
            5.3349,
            5.3392,
            5.344,
            5.3494,
            5.3597,
            5.3621,
            5.3685,
            5.3739,
            5.3799,
            5.3839,
            5.3868,
            5.3895,
            5.3947,
            5.4011,
            5.4036,
            5.4087,
            5.4114,
            5.4128,
            5.4179,
            5.4217,
            5.4257,
            5.4307,
            5.4333,
            5.4411,
            5.4438,
            5.4504,
            5.4567,
            5.4584,
            5.4633,
            5.4686,
            5.471,
            5.4758,
            5.4811,
            5.4874,
            5.4878,
            5.4893,
            5.4944,
            5.4983,
            5.5035,
            5.5099,
            4.0026,
            4.0064,
            4.0102,
            4.0126,
            4.0166,
            4.0241,
            4.0282,
            4.0333,
            4.0345,
            4.0368,
            4.0432,
            4.0472,
            4.0512,
            4.059,
            4.0642,
            4.0695,
            4.0746,
            4.0783,
            4.0833,
            4.0862,
            4.095,
            4.0976,
            4.1041,
            4.1069,
            4.1144,
            4.1186,
            4.1236,
            4.1287,
            4.1329,
            4.1381,
            4.1435,
            4.1471,
            4.1522,
            4.1585,
            4.1625,
            4.1687,
            4.1739,
            4.1781,
            4.1819,
            4.1859,
            4.1911,
            4.1935,
            4.1987,
            4.2039,
            4.2089,
            4.213,
            4.2131,
            4.2173,
            4.2233,
            4.2286,
            4.2335,
            4.2442,
            4.2478,
            4.2521,
            4.2608,
            4.2659,
            4.2699,
            4.2725,
            4.2803,
            4.2833,
            4.2878,
            4.2946,
            4.3036,
            4.3115,
            4.3149,
            4.3187,
            4.324,
            4.3307,
            4.336,
            4.3378,
            4.3395,
            4.346,
            4.35,
            4.3539,
            4.3604,
            4.3657,
            4.3708,
            4.3773,
            4.3797,
            4.3862,
            4.3912,
            4.3967,
            4.4018,
            4.406,
            4.4138,
            4.4176,
            4.4225,
            4.4226,
            4.4265,
            4.4316,
            4.4381,
            4.4419,
            4.446,
            4.4512,
            4.4563,
            4.4599,
            4.4651,
            4.4678,
            4.4692,
            4.4717,
            4.477,
            4.4808,
            4.4845,
            4.491,
            4.4938,
            4.4939,
            4.503,
            4.508,
            4.5118,
            4.5182,
            4.5209,
            4.5251,
            4.5299,
            4.5364,
            4.5429,
            4.548,
            4.5494,
            4.5508,
            4.556,
            4.5611,
            4.5663,
            4.5753,
            4.5819,
            4.586,
            4.5934,
            4.5971,
            4.5998,
            4.6025,
            4.6066,
            4.6128,
            4.6168,
            4.6207,
            4.627,
            4.6296,
            4.6335,
            4.6364,
            4.6428,
            4.6479,
            4.653,
            4.6595,
            4.6635,
            4.6697,
            4.6707,
            4.6761,
            4.6809,
            4.6864,
            4.6928,
            4.6994,
            4.7017,
            4.707,
            4.7109,
            4.7199,
            4.7227,
            4.7253,
            4.7344,
            4.7406,
            4.7483,
            4.7525,
            4.7578,
            4.7691,
            4.7755,
            4.7767,
            4.7784,
            4.7848,
            4.7901,
            4.7912,
            4.7952,
            4.7953,
            4.8004,
            4.8054,
            4.8133,
            4.8185,
            4.8247,
            4.8302,
            4.8338,
            4.8404,
            4.8429,
            4.8482,
            4.8546,
            4.8599,
            4.8612,
            4.8614,
            4.8676,
            4.8718,
            4.8793,
            4.8833,
            4.8911,
            4.8934,
            4.8969,
            4.901,
            4.9076,
            4.9077,
            4.9143,
            4.9193,
            4.9221,
            4.9273,
            4.9325,
            4.9401,
            4.9478,
            4.9516,
            4.9541,
            4.9606,
            4.9607,
            4.9609,
            4.9698,
            4.9751,
            4.9829,
            4.9843,
            4.9894,
            4.996,
            4.9997,
            5.0061,
            5.0102,
            5.0127,
            5.0204,
            5.0254,
            5.0303,
            5.0343,
            5.0418,
            5.0459,
            5.0511,
            5.0525,
            5.0526,
            5.059,
            5.0643,
            5.0654,
            5.0676,
            5.0725,
            5.0773,
            5.0784,
            5.0822,
            5.0874,
            5.0888,
            5.094,
            5.0978,
            5.103,
            5.1095,
            5.116,
            5.1195,
            5.1235,
            5.1299,
            5.1336,
            5.1415,
            5.1441,
            5.1506,
            5.1571,
            5.1612,
            5.1624,
            5.166,
            5.1712,
            5.1714,
            5.177,
            5.1805,
            5.1851,
            5.1892,
            5.1945,
            5.1985,
            5.2049,
            5.2125,
            5.214,
            5.2167,
            5.2231,
            5.2257,
            5.2309,
            5.2361,
            5.2412,
            5.2451,
            5.2477,
            5.2502,
            5.2568,
            5.2606,
            5.266,
            5.27,
            5.2779,
            5.2801,
            5.2855,
            5.2904,
            5.2957,
            5.3007,
            5.3048,
            5.3084,
            5.3161,
            5.3227,
            5.3265,
            5.3316,
            5.3344,
            5.3408,
            5.3435,
            5.3512,
            5.3537,
            5.3612,
            5.3715,
            5.3831,
            5.3847,
            5.3874,
            5.3938,
            5.4016,
            5.4079,
            5.417,
            5.4246,
            5.4339,
            5.439,
            5.4457,
            5.4519,
            5.4574,
            5.4624,
            5.4702,
            5.4712,
            5.4764,
            5.4828,
            5.4856,
            5.4858,
            5.4961,
            5.5011,
            5.509,
            4.0027,
            4.0104,
            4.017,
            4.022,
            4.0272,
            4.0323,
            4.0348,
            4.0384,
            4.041,
            4.0463,
            4.0516,
            4.0567,
            4.0632,
            4.0633,
            4.0727,
            4.0764,
            4.0789,
            4.0813,
            4.0879,
            4.0968,
            4.1018,
            4.1126,
            4.1165,
            4.1217,
            4.1242,
            4.1293,
            4.1333,
            4.1375,
            4.1427,
            4.1477,
            4.1515,
            4.1541,
            4.1565,
            4.1617,
            4.1668,
            4.172,
            4.1774,
            4.1813,
            4.1838,
            4.1929,
            4.197,
            4.2018,
            4.2084,
            4.2124,
            4.2188,
            4.2241,
            4.2269,
            4.2305,
            4.2343,
            4.2383,
            4.2423,
            4.2473,
            4.2526,
            4.2591,
            4.2603,
            4.2654,
            4.2681,
            4.2708,
            4.2785,
            4.2826,
            4.2873,
            4.2941,
            4.298,
            4.3044,
            4.3097,
            4.3109,
            4.3119,
            4.3197,
            4.3249,
            4.337,
            4.3381,
            4.3394,
            4.3443,
            4.3509,
            4.3536,
            4.3588,
            4.3653,
            4.3703,
            4.3744,
            4.3779,
            4.3807,
            4.3845,
            4.3897,
            4.3941,
            4.3977,
            4.4031,
            4.4096,
            4.4134,
            4.4199,
            4.4248,
            4.4328,
            4.4365,
            4.4405,
            4.4445,
            4.451,
            4.4561,
            4.46,
            4.4664,
            4.4714,
            4.4768,
            4.4858,
            4.4909,
            4.4937,
            4.4965,
            4.5004,
            4.5067,
            4.5117,
            4.5156,
            4.5223,
            4.5312,
            4.5326,
            4.5353,
            4.5391,
            4.5416,
            4.5455,
            4.5508,
            4.5573,
            4.5612,
            4.5689,
            4.5701,
            4.5753,
            4.5794,
            4.5875,
            4.5921,
            4.5974,
            4.6001,
            4.6079,
            4.6117,
            4.6157,
            4.6222,
            4.6246,
            4.6258,
            4.6312,
            4.6365,
            4.647,
            4.6482,
            4.6498,
            4.6571,
            4.6623,
            4.666,
            4.6709,
            4.6776,
            4.6839,
            4.6868,
            4.6918,
            4.6971,
            4.702,
            4.7073,
            4.7125,
            4.7164,
            4.7217,
            4.7257,
            4.7308,
            4.736,
            4.7424,
            4.7462,
            4.7527,
            4.7554,
            4.7581,
            4.7683,
            4.7722,
            4.775,
            4.7764,
            4.7802,
            4.7814,
            4.7866,
            4.7903,
            4.7944,
            4.8009,
            4.8046,
            4.815,
            4.8226,
            4.8254,
            4.8318,
            4.8357,
            4.8421,
            4.845,
            4.8514,
            4.8579,
            4.8618,
            4.8644,
            4.8694,
            4.8725,
            4.8775,
            4.8827,
            4.8866,
            4.8931,
            4.8956,
            4.903,
            4.9072,
            4.9112,
            4.9176,
            4.9243,
            4.9282,
            4.9307,
            4.9383,
            4.9435,
            4.9487,
            4.9538,
            4.9577,
            4.963,
            4.9695,
            4.9746,
            4.9773,
            4.9825,
            4.9876,
            4.9916,
            4.9968,
            5.0018,
            5.0071,
            5.0122,
            5.0174,
            5.0251,
            5.0288,
            5.0327,
            5.0402,
            5.0444,
            5.0496,
            5.0549,
            5.0575,
            5.0628,
            5.0689,
            5.0737,
            5.077,
            5.0847,
            5.0886,
            5.0952,
            5.0977,
            5.1028,
            5.1081,
            5.1159,
            5.117,
            5.1194,
            5.1234,
            5.1273,
            5.1297,
            5.1324,
            5.1402,
            5.1433,
            5.1491,
            5.1532,
            5.1598,
            5.1636,
            5.1698,
            5.174,
            5.1779,
            5.1818,
            5.1865,
            5.1879,
            5.196,
            5.1986,
            5.2037,
            5.2101,
            5.2129,
            5.2142,
            5.2207,
            5.2246,
            5.2284,
            5.2362,
            5.2414,
            5.2479,
            5.2504,
            5.2582,
            5.2622,
            5.2649,
            5.2702,
            5.2754,
            5.2804,
            5.2857,
            5.2919,
            5.2933,
            5.301,
            5.3076,
            5.3099,
            5.3176,
            5.323,
            5.3307,
            5.336,
            5.3413,
            5.3452,
            5.349,
            5.3594,
            5.3631,
            5.3669,
            5.3721,
            5.3798,
            5.385,
            5.3852,
            5.3865,
            5.3917,
            5.3982,
            5.4071,
            5.4124,
            5.4175,
            5.4226,
            5.428,
            5.4319,
            5.4371,
            5.4447,
            5.4449,
            5.4538,
            5.4554,
            5.4604,
            5.4669,
            5.4758,
            5.4835,
            5.4861,
            5.4904,
            5.4942,
            5.4966,
            5.5018,
            5.5084,
            5.5148,
            5.5188,
            5.5252
          ],
          [
            140.44,
            148.42,
            151.61,
            146.04,
            142.87,
            108.21,
            127.74,
            139.3,
            150.86,
            144.89,
            149.68,
            154.87,
            160.46,
            152.89,
            144.53,
            134.97,
            139.76,
            143.75,
            151.32,
            158.49,
            140.57,
            153.33,
            156.53,
            154.55,
            137.43,
            153.77,
            160.16,
            136.26,
            153.0,
            135.08,
            143.46,
            138.69,
            160.61,
            163.81,
            159.43,
            147.09,
            151.48,
            147.5,
            159.47,
            145.13,
            138.76,
            137.18,
            127.22,
            150.73,
            134.01,
            141.58,
            137.61,
            131.24,
            133.23,
            140.81,
            109.35,
            130.87,
            126.49,
            109.37,
            131.69,
            128.91,
            132.5,
            130.92,
            126.94,
            126.54,
            128.94,
            115.0,
            108.63,
            139.31,
            130.96,
            136.94,
            125.39,
            109.86,
            144.54,
            155.7,
            146.54,
            142.17,
            123.06,
            110.72,
            122.28,
            119.1,
            130.27,
            128.69,
            109.57,
            106.79,
            110.78,
            117.56,
            119.56,
            124.75,
            117.19,
            114.4,
            110.82,
            103.25,
            100.47,
            88.134,
            105.27,
            107.67,
            129.59,
            120.82,
            118.04,
            125.62,
            121.64,
            128.82,
            121.26,
            122.07,
            114.9,
            109.73,
            114.51,
            120.49,
            115.32,
            97.799,
            100.99,
            106.57,
            114.54,
            129.28,
            120.93,
            124.92,
            112.18,
            115.37,
            112.19,
            106.22,
            111.8,
            116.19,
            110.21,
            106.23,
            111.02,
            103.46,
            93.107,
            101.88,
            113.84,
            107.87,
            110.67,
            104.3,
            101.11,
            117.45,
            110.68,
            105.5,
            91.167,
            95.557,
            104.73,
            107.12,
            105.54,
            96.377,
            101.17,
            96.789,
            91.614,
            85.642,
            82.463,
            100.4,
            119.53,
            111.17,
            116.75,
            129.11,
            117.17,
            104.43,
            106.84,
            110.82,
            120.79,
            119.2,
            105.67,
            114.84,
            110.46,
            98.119,
            110.87,
            103.31,
            88.179,
            84.205,
            100.94,
            108.12,
            92.194,
            91.006,
            104.16,
            91.418,
            63.936,
            69.523,
            76.301,
            73.522,
            84.284,
            91.861,
            88.281,
            96.657,
            92.679,
            99.06,
            95.086,
            103.86,
            73.996,
            73.601,
            72.015,
            84.775,
            68.447,
            68.857,
            70.064,
            78.438,
            86.805,
            88.403,
            105.95,
            87.631,
            74.092,
            78.082,
            79.288,
            81.684,
            84.875,
            92.45,
            126.33,
            76.132,
            83.311,
            85.705,
            84.119,
            72.972,
            69.789,
            70.595,
            67.412,
            64.227,
            61.849,
            65.037,
            67.039,
            63.856,
            59.888,
            71.442,
            84.194,
            81.814,
            102.94,
            91.392,
            94.983,
            89.013,
            84.237,
            80.657,
            77.876,
            82.658,
            116.53,
            129.28,
            61.962,
            83.879,
            56.002,
            90.668,
            86.292,
            89.092,
            88.301,
            100.67,
            82.349,
            91.519,
            89.533,
            87.145,
            83.963,
            93.134,
            93.14,
            87.168,
            39.771,
            79.614,
            93.965,
            83.215,
            72.867,
            87.612,
            97.181,
            86.034,
            81.26,
            82.064,
            94.425,
            72.122,
            94.839,
            64.967,
            92.064,
            88.082,
            82.118,
            91.288,
            87.318,
            90.913,
            82.553,
            75.79,
            66.237,
            71.418,
            81.783,
            62.271,
            83.39,
            77.821,
            66.672,
            57.914,
            78.239,
            87.805,
            88.612,
            92.603,
            91.017,
            79.869,
            82.657,
            86.25,
            82.269,
            65.144,
            75.512,
            83.485,
            94.249,
            93.458,
            92.272,
            111.01,
            112.61,
            82.334,
            83.15,
            80.773,
            83.171,
            87.557,
            83.579,
            77.608,
            83.985,
            91.158,
            92.767,
            87.198,
            82.819,
            75.652,
            80.042,
            58.936,
            72.885,
            66.124,
            98.0,
            90.439,
            98.015,
            86.47,
            91.657,
            82.104,
            69.758,
            68.174,
            76.073,
            74.935,
            77.992,
            88.28,
            83.719,
            87.921,
            73.452,
            78.798,
            89.839,
            92.129,
            96.324,
            98.619,
            101.29,
            97.497,
            101.69,
            104.75,
            97.526,
            94.864,
            96.783,
            98.314,
            91.846,
            97.187,
            102.15,
            105.59,
            99.501,
            90.748,
            82.378,
            98.006,
            104.87,
            90.784,
            90.034,
            77.853,
            58.058,
            88.155,
            91.205,
            93.116,
            91.226,
            115.23,
            108.0,
            92.012,
            86.308,
            87.843,
            93.176,
            91.288,
            103.1,
            102.35,
            92.078,
            78.752,
            93.62,
            81.82,
            87.543,
            91.361,
            85.655,
            90.24,
            79.585,
            85.307,
            88.357,
            90.266,
            86.086,
            87.621,
            83.819,
            82.303,
            86.498,
            88.792,
            85.362,
            78.511,
            75.097,
            79.675,
            79.303,
            85.781,
            96.834,
            94.939,
            95.329,
            85.814,
            73.635,
            75.173,
            90.782,
            93.079,
            92.325,
            96.15,
            83.969,
            80.929,
            83.221,
            85.897,
            72.573,
            82.483,
            90.496,
            85.554,
            84.423,
            74.149,
            66.155,
            69.597,
            77.605,
            84.09,
            86.763,
            86.011,
            83.354,
            79.545,
            73.08,
            76.134,
            69.671,
            76.148,
            81.107,
            77.303,
            104.74,
            76.562,
            76.572,
            82.675,
            87.253,
            70.885,
            68.225,
            71.282,
            76.243,
            84.251,
            80.833,
            64.466,
            76.283,
            85.053,
            77.064,
            78.595,
            75.181,
            72.9,
            67.958,
            69.872,
            72.924,
            75.221,
            70.279,
            63.05,
            74.488,
            78.302,
            73.738,
            72.217,
            75.654,
            78.706,
            74.523,
            73.393,
            58.548,
            70.36,
            73.419,
            65.427,
            59.728,
            65.068,
            72.312,
            66.603,
            66.234,
            63.197,
            71.962,
            86.061,
            80.358,
            86.457,
            90.653,
            76.185,
            77.339,
            74.678,
            80.784,
            79.27,
            80.803,
            90.337,
            79.681,
            77.025,
            79.319,
            69.8,
            65.234,
            75.527,
            77.822,
            75.165,
            68.312,
            61.458,
            49.658,
            58.051,
            64.153,
            67.969,
            69.887,
            70.663,
            63.812,
            56.202,
            58.116,
            62.317,
            67.278,
            69.192,
            73.767,
            76.441,
            74.927,
            74.936,
            77.995,
            73.81,
            76.874,
            65.835,
            53.654,
            63.188,
            54.049,
            62.062,
            57.882,
            59.043,
            65.523,
            67.82,
            70.115,
            66.313,
            77.373,
            65.578,
            61.397,
            54.927,
            62.935,
            65.237,
            77.054,
            78.211,
            34.033,
            61.088,
            57.291,
            52.344,
            50.832,
            47.795,
            45.136,
            40.574,
            51.249,
            48.209,
            47.078,
            45.945,
            53.189,
            66.151,
            66.541,
            87.877,
            77.603,
            73.425,
            62.006,
            60.87,
            63.551,
            92.884,
            109.27,
            65.853,
            51.381,
            65.481,
            75.391,
            73.113,
            62.458,
            60.565,
            30.102,
            65.533,
            44.216,
            64.405,
            75.836,
            73.941,
            78.133,
            82.716,
            45.394,
            75.112,
            77.788,
            72.082,
            67.902,
            62.576,
            66.771,
            72.874,
            77.074,
            74.034,
            66.421,
            63.381,
            82.432,
            88.157,
            79.785,
            81.701,
            76.759,
            81.337,
            79.44,
            76.021,
            69.553,
            72.995,
            69.955,
            73.776,
            75.695,
            69.982,
            71.136,
            75.711,
            69.624,
            63.921,
            53.258,
            47.174,
            65.849,
            61.28,
            52.525,
            49.102,
            59.012,
            61.307,
            63.601,
            52.941,
            73.521,
            78.863,
            66.686,
            80.784,
            75.466,
            58.333,
            76.625,
            65.589,
            68.274,
            75.135,
            78.955,
            70.585,
            90.022,
            86.982,
            69.085,
            64.901,
            64.148,
            66.826,
            70.259,
            74.458,
            69.511,
            66.086,
            70.666,
            73.72,
            69.538,
            74.879,
            73.361,
            74.898,
            69.19,
            60.441,
            69.214,
            52.076,
            64.274,
            60.094,
            68.859,
            85.627,
            78.781,
            86.41,
            68.509,
            58.608,
            62.046,
            62.814,
            60.158,
            63.597,
            68.241,
            73.345,
            80.409,
            89.824,
            85.125,
            96.116,
            83.574,
            86.719,
            98.093,
            112.61,
            116.93,
            110.66,
            101.26,
            99.699,
            95.786,
            89.519,
            94.625,
            107.57,
            113.07,
            95.035,
            113.09,
            107.99,
            109.57,
            97.42,
            108.8,
            89.595,
            99.406,
            105.3,
            90.009,
            87.271,
            73.163,
            90.03,
            93.175,
            103.38,
            92.407,
            110.06,
            112.03,
            90.47,
            93.613,
            88.129,
            86.568,
            95.199,
            96.776,
            95.607,
            103.07,
            93.66,
            82.681,
            63.472,
            95.637,
            83.489,
            102.71,
            82.728,
            96.851,
            72.937,
            92.949,
            98.055,
            91.787,
            86.693,
            86.313,
            63.181,
            99.657,
            80.845,
            84.388,
            78.91,
            102.84,
            109.12,
            102.85,
            87.566,
            81.692,
            86.796,
            100.52,
            98.962,
            95.439,
            93.876,
            92.71,
            83.698,
            89.588,
            83.716,
            96.661,
            93.926,
            103.34,
            83.354,
            86.107,
            67.29,
            68.086,
            73.19,
            86.53,
            82.609,
            81.047,
            84.976,
            85.77,
            84.599,
            74.802,
            74.026,
            79.916,
            90.901,
            89.341,
            83.071,
            80.72,
            83.861,
            78.771,
            83.482,
            90.155,
            88.988,
            79.189,
            69.385,
            69.399,
            77.642,
            83.922,
            89.422,
            78.054,
            62.767,
            85.518,
            77.686,
            78.48,
            82.801,
            77.313,
            71.825,
            67.912,
            73.802,
            71.457,
            75.0,
            64.814,
            54.233,
            76.596,
            84.837,
            76.214,
            70.336,
            60.538,
            75.449,
            69.181,
            62.913,
            75.471,
            74.691,
            73.52,
            56.271,
            60.594,
            62.17,
            68.452,
            65.325,
            58.273,
            70.831,
            89.655,
            76.723,
            97.122,
            81.052,
            83.023,
            74.014,
            90.095,
            82.652,
            86.188,
            86.201,
            75.618,
            72.092,
            68.969,
            85.057,
            86.245,
            70.565,
            62.731,
            82.747,
            85.502,
            81.979,
            67.076,
            73.36,
            63.957,
            73.762,
            68.67,
            60.043,
            69.07,
            75.352,
            67.914,
            65.961,
            79.695,
            63.626,
            76.18,
            73.053,
            78.155,
            66.398,
            73.467,
            67.201,
            62.889,
            53.87,
            69.957,
            47.219,
            61.74,
            55.864,
            54.7,
            58.637,
            68.046,
            80.204,
            70.411,
            66.882,
            60.225,
            71.605,
            56.708,
            55.932,
            51.234,
            64.578,
            66.551,
            68.517,
            77.148,
            70.884,
            65.394,
            53.63,
            62.663,
            58.358,
            56.017,
            48.568,
            50.537,
            45.449,
            52.121,
            57.229,
            47.039,
            52.925,
            52.545,
            61.572,
            77.657,
            76.095,
            89.047,
            72.975,
            74.944,
            67.887,
            61.613,
            62.408,
            59.671,
            67.907,
            93.792,
            108.7,
            53.808,
            67.143,
            72.247,
            67.157,
            63.629,
            60.892,
            62.859,
            64.435,
            59.74,
            58.181,
            79.362,
            73.486,
            80.555,
            88.795,
            80.18,
            76.263,
            79.018,
            75.106,
            64.132,
            68.448,
            82.178,
            83.755,
            68.462,
            45.726,
            69.652,
            101.03,
            90.449,
            81.046,
            75.17,
            77.532,
            86.171,
            71.664,
            65.002,
            70.894,
            67.761,
            68.945,
            65.816,
            70.529,
            68.967,
            70.931,
            73.288,
            67.808,
            69.775,
            58.019,
            52.535,
            40.782,
            63.138,
            51.774,
            67.467,
            62.378,
            69.052,
            59.254,
            70.632,
            76.918,
            71.438,
            76.15,
            80.471,
            66.358,
            68.329,
            64.804,
            65.992,
            67.564,
            86.399,
            87.983,
            89.962,
            69.965,
            64.087,
            69.194,
            65.677,
            77.451,
            73.151,
            81.398,
            67.295,
            72.008,
            61.039,
            74.773,
            54.39,
            66.554,
            62.253,
            82.253,
            79.124,
            83.055,
            68.943,
            54.434,
            62.684,
            69.751,
            64.273,
            69.018,
            79.882,
            67.026,
            85.525,
            76.687,
            83.528,
            90.768,
            112.08,
            117.71,
            102.84,
            93.201,
            100.85,
            104.87,
            90.402,
            71.921,
            83.584,
            90.02,
            104.9,
            94.855,
            106.53,
            119.4,
            88.856,
            84.037,
            88.064,
            94.499,
            101.74,
            87.274,
            68.786,
            66.381,
            83.272,
            87.297,
            88.506,
            99.364,
            96.557,
            105.01,
            107.02,
            84.516,
            86.933,
            89.348,
            91.37,
            77.706,
            101.83,
            95.41,
            88.982,
            87.784,
            83.369,
            67.291,
            89.005,
            95.442,
            88.613,
            81.381,
            92.645,
            83.405,
            84.217,
            88.641,
            91.863,
            87.846,
            81.015,
            85.045,
            66.959,
            105.96,
            82.251,
            75.019,
            85.078,
            75.436,
            85.086,
            102.78,
            105.2,
            103.6,
            71.45,
            83.513,
            95.573,
            104.83,
            95.188,
            83.934,
            81.931,
            85.959,
            97.222,
            81.146,
            82.361,
            98.039,
            100.05,
            100.86,
            57.854,
            80.774,
            69.524,
            62.698,
            68.733,
            71.957,
            87.24,
            77.2,
            84.441,
            79.22,
            70.782,
            66.77,
            74.415,
            75.626,
            80.86,
            91.722,
            75.647,
            80.483,
            85.314,
            73.256,
            60.797,
            59.194,
            73.273,
            81.722,
            83.737,
            68.066,
            78.932,
            73.306,
            63.258,
            69.294,
            73.317,
            77.342,
            66.092,
            62.08,
            64.899,
            65.713,
            73.755,
            72.154,
            58.088,
            35.182,
            76.195,
            70.573,
            62.938,
            59.33,
            61.747,
            59.742,
            54.121,
            72.216,
            77.042,
            57.751,
            53.737,
            44.504,
            71.845,
            101.59,
            59.794,
            62.213,
            71.866,
            91.974,
            79.117,
            94.402,
            71.49,
            81.145,
            69.895,
            94.425,
            85.989,
            81.574,
            86.001,
            75.555,
            69.127,
            72.35,
            67.532,
            79.601,
            83.626,
            78.408,
            72.381,
            62.736,
            77.222,
            79.237,
            60.747,
            55.924,
            60.352,
            68.394,
            64.782,
            82.074,
            64.792,
            65.202,
            76.865,
            72.858,
            86.135,
            72.469,
            79.312,
            74.493,
            79.727,
            54.805,
            64.06,
            60.45,
            59.249,
            63.674,
            76.545,
            37.955,
            51.228,
            46.41,
            45.611,
            46.825,
            50.849,
            80.608,
            58.502,
            49.26,
            55.701,
            40.834,
            36.417,
            40.44,
            54.521,
            57.342,
            54.936,
            60.169,
            57.762,
            46.512,
            46.52,
            53.361,
            46.128,
            45.33,
            48.151,
            41.321,
            44.544,
            51.385,
            48.979,
            53.408,
            49.796,
            56.239,
            72.726,
            67.505,
            90.832,
            66.314,
            66.32,
            57.482,
            59.094,
            50.256,
            78.405,
            103.74,
            47.058,
            57.52,
            53.505,
            48.287,
            51.104,
            58.347,
            51.921,
            45.499,
            59.973,
            74.851,
            70.434,
            69.635,
            83.709,
            76.476,
            72.063,
            35.482,
            88.155,
            72.482,
            61.635,
            68.072,
            84.965,
            66.879,
            62.462,
            58.849,
            99.057,
            86.998,
            68.917,
            64.498,
            74.153,
            78.584,
            63.712,
            60.498,
            62.114,
            59.305,
            62.124,
            58.515,
            62.944,
            55.716,
            64.162,
            64.976,
            58.146,
            50.109,
            42.075,
            35.649,
            53.747,
            41.291,
            63.41,
            57.783,
            61.009,
            50.565,
            70.267,
            75.906,
            62.645,
            69.088,
            59.848,
            47.392,
            51.015,
            52.226,
            55.053,
            70.737,
            73.556,
            75.17,
            77.592,
            79.207,
            61.92,
            58.303,
            57.104,
            61.534,
            73.606,
            62.356,
            69.599,
            74.028,
            61.572,
            56.351,
            54.347,
            66.819,
            49.935,
            66.027,
            43.113,
            55.18,
            54.787,
            68.467,
            74.507,
            69.686,
            45.168,
            51.203,
            62.463,
            61.665,
            49.211,
            54.847,
            50.832,
            59.283
          ]
        ]
      }
    }
  },
  "experimental_conditions": {
    "001": {
      "0": {
        "detector": [
          {
            "x4_code": "(SOLST)",
            "free_txt": [
              " Four ORTEC semiconductor detectors of depletion",
              "depth near 500 mu-m were mounted on the periphery of",
              "the wheel. The active area of the detectors (about",
              "50 mm2) was reduced to 4.5 mm2 by collimators. The",
              "angular spread of the detector at the target was 0.47",
              "degr. and the solid angle for detection near 2*10**(-4)",
              "sr. The detector resolution was estimated, using 241Am",
              "alphas, to be 24 keV."
            ]
          }
        ],
        "err-analys": [
          {
            "x4_code": "(ERR-SYS)",
            "free_txt": [
              "    Systematic error"
            ]
          },
          {
            "x4_code": "(EN-ERR-DIG)",
            "free_txt": [
              " Energy digitizing error"
            ]
          },
          {
            "x4_code": "(ERR-DIG)",
            "free_txt": [
              "    Data digitizing error"
            ]
          }
        ],
        "facility": [
          {
            "x4_code": "(VDG,3INDTRM)",
            "free_txt": [
              " The 5.5 MeV"
            ]
          }
        ],
        "inc-source": [
          {
            "x4_code": null,
            "free_txt": [
              "The stability of the current integrator was within 3%",
              "down to a minimum current of 0.1 mu-A, as estimated",
              "from repeat runs on the same target at the same energy."
            ]
          }
        ],
        "method": [
          {
            "x4_code": "(BCINT)",
            "free_txt": []
          }
        ],
        "sample": [
          {
            "x4_code": null,
            "free_txt": [
              "Targets were made by evaporating natural vanadium metal",
              "on to self supporting carbon films of about 10 to 20",
              "mu-g/cm2. The thickness of the vanadium target was",
              "5 mu-g/cm2."
            ]
          }
        ]
      }
    },
    "002": {
      "0": {
        "status": [
          {
            "x4_code": "(CURVE)",
            "free_txt": [
              " Fig.2"
            ]
          }
        ]
      }
    }
  }
}