{
  "entry": "O2293",
  "last_updated": "2017-06-09",
  "number_of_revisions": "1",
  "histories": [
    {
      "x4_code": "(20160925C)",
      "free_txt": [
        "sb"
      ]
    }
  ],
  "bib_record": {
    "title": "Neutron sources in nuclear astrophysics.",
    "authors": [
      {
        "name": "R.Kunz"
      },
      {
        "name": "A.Denker"
      },
      {
        "name": "H.W.Drotleff"
      },
      {
        "name": "M.Grobe"
      },
      {
        "name": "H.Knee"
      },
      {
        "name": "S.Kuechler"
      },
      {
        "name": "R.Seidel"
      },
      {
        "name": "M.Soine"
      },
      {
        "name": "J.W.Hammer"
      }
    ],
    "institutes": [
      {
        "x4_code": "(2GERIFS)",
        "free_txt": []
      }
    ],
    "references": {
      "0": [
        {
          "x4_code": "(C,94CRETE,,38,1994)",
          "free_txt": [],
          "publication_year": "1994"
        },
        {
          "x4_code": "(T,Denker,1994)",
          "free_txt": [],
          "publication_year": "1994"
        }
      ]
    },
    "facilities": {
      "0": [
        {
          "x4_code": "(DYNAM,2GERIFS)",
          "free_txt": [
            " 4 MV DYNAMITRON accelerator"
          ],
          "facility_type": "(DYNAM)",
          "institute": "(2GERIFS)"
        }
      ]
    }
  },
  "data_tables": {
    "001": {
      "common": null
    },
    "002": {
      "reaction": {
        "0": {
          "x4_code": "(10-NE-21(A,N)12-MG-24,,SIG)",
          "0": {
            "code": [
              "10-NE-21",
              [
                "A,N"
              ],
              "12-MG-24,,SIG"
            ],
            "type": null,
            "target": "10-NE-21",
            "process": "A,N",
            "sf49": "12-MG-24,,SIG",
            "sf4": "12-MG-24",
            "sf5": null,
            "sf6": "SIG",
            "sf7": null,
            "sf8": null,
            "sf9": null
          },
          "type": null,
          "free_text": ""
        }
      },
      "common": null,
      "data": {
        "heads": [
          "EN",
          "DATA",
          "DATA-ERR"
        ],
        "units": [
          "KEV",
          "MICRO-B",
          "MICRO-B"
        ],
        "data": [
          [
            555.0,
            565.0,
            575.0,
            584.0,
            585.0,
            595.0,
            605.0,
            624.0,
            644.0,
            664.0,
            684.0,
            704.0,
            724.0,
            739.0,
            759.0,
            772.0,
            804.0,
            819.0,
            823.0,
            833.0,
            844.0,
            850.0,
            854.0,
            864.0,
            874.0,
            875.0,
            880.0,
            884.0,
            894.0,
            904.0,
            915.0,
            920.0,
            920.0,
            922.0,
            924.0,
            931.0,
            941.0,
            951.0,
            961.0,
            965.0,
            974.0,
            975.0,
            981.0,
            985.0,
            991.0,
            997.0,
            1001.0,
            1005.0,
            1011.0,
            1015.0,
            1020.0,
            1021.0,
            1031.0,
            1031.0,
            1035.0,
            1036.0,
            1039.0,
            1041.0,
            1046.0,
            1050.0,
            1051.0,
            1072.0,
            1081.0,
            1092.0,
            1101.0,
            1112.0,
            1121.0,
            1131.0,
            1141.0,
            1152.0,
            1161.0,
            1166.0,
            1171.0,
            1176.0,
            1181.0,
            1187.0,
            1198.0,
            1202.0,
            1207.0,
            1212.0,
            1212.0,
            1217.0,
            1222.0,
            1227.0,
            1231.0,
            1236.0,
            1242.0,
            1247.0,
            1252.0,
            1257.0,
            1262.0,
            1267.0,
            1272.0,
            1277.0,
            1281.0,
            1287.0,
            1292.0,
            1297.0,
            1301.0,
            1308.0,
            1312.0,
            1322.0,
            1332.0,
            1342.0,
            1352.0,
            1360.0,
            1362.0,
            1365.0,
            1370.0,
            1371.0,
            1374.0,
            1375.0,
            1376.0,
            1378.0,
            1380.0,
            1382.0,
            1384.0,
            1386.0,
            1386.0,
            1388.0,
            1390.0,
            1392.0,
            1394.0,
            1396.0,
            1398.0,
            1400.0,
            1402.0,
            1404.0,
            1406.0,
            1408.0,
            1410.0,
            1412.0,
            1414.0,
            1416.0,
            1418.0,
            1420.0,
            1422.0,
            1424.0,
            1426.0,
            1428.0,
            1430.0,
            1432.0,
            1433.0,
            1440.0,
            1443.0,
            1444.0,
            1448.0,
            1452.0,
            1453.0,
            1456.0,
            1460.0,
            1464.0,
            1466.0,
            1468.0,
            1470.0,
            1472.0,
            1474.0,
            1476.0,
            1478.0,
            1480.0,
            1482.0,
            1484.0,
            1486.0,
            1488.0,
            1490.0,
            1492.0,
            1496.0,
            1498.0,
            1500.0,
            1502.0,
            1504.0,
            1514.0,
            1518.0,
            1520.0,
            1522.0,
            1524.0,
            1526.0,
            1528.0,
            1530.0,
            1532.0,
            1534.0,
            1536.0,
            1538.0,
            1540.0,
            1542.0,
            1546.0,
            1550.0,
            1554.0,
            1558.0,
            1562.0,
            1564.0,
            1566.0,
            1568.0,
            1570.0,
            1574.0,
            1576.0,
            1584.0,
            1588.0,
            1592.0,
            1596.0,
            1602.0,
            1606.0,
            1610.0,
            1614.0,
            1618.0,
            1622.0,
            1624.0,
            1626.0,
            1628.0,
            1630.0,
            1632.0,
            1634.0,
            1636.0,
            1638.0,
            1640.0,
            1642.0,
            1644.0,
            1646.0,
            1648.0,
            1650.0,
            1652.0,
            1654.0,
            1656.0,
            1659.0,
            1663.0,
            1667.0,
            1670.0,
            1675.0,
            1678.0,
            1682.0,
            1705.0,
            1709.0,
            1713.0,
            1715.0,
            1717.0,
            1719.0,
            1721.0,
            1723.0,
            1727.0,
            1729.0,
            1731.0,
            1733.0,
            1735.0,
            1739.0,
            1743.0,
            1747.0,
            1751.0,
            1753.0,
            1755.0,
            1757.0,
            1759.0,
            1761.0,
            1763.0,
            1765.0,
            1767.0,
            1769.0,
            1771.0,
            1773.0,
            1775.0,
            1777.0,
            1779.0,
            1781.0,
            1783.0,
            1785.0,
            1789.0,
            1793.0,
            1797.0,
            1801.0,
            1805.0,
            1807.0,
            1809.0,
            1811.0,
            1813.0,
            1815.0,
            1817.0,
            1819.0,
            1821.0,
            1823.0,
            1825.0,
            1827.0,
            1829.0,
            1831.0,
            1833.0,
            1835.0,
            1837.0,
            1839.0,
            1843.0,
            1847.0,
            1849.0,
            1851.0,
            1853.0,
            1855.0,
            1857.0,
            1859.0,
            1861.0,
            1863.0,
            1865.0,
            1867.0,
            1871.0,
            1875.0,
            1879.0,
            1883.0,
            1887.0,
            1891.0,
            1895.0,
            1899.0,
            1903.0,
            1907.0,
            1911.0,
            1915.0,
            1917.0,
            1919.0,
            1921.0,
            1923.0,
            1925.0,
            1927.0,
            1929.0,
            1931.0,
            1933.0,
            1935.0,
            1937.0,
            1941.0,
            1945.0,
            1949.0,
            1951.0,
            1953.0,
            1955.0,
            1957.0,
            1959.0,
            1961.0,
            1963.0,
            1965.0,
            1967.0,
            1969.0,
            1971.0,
            1973.0,
            1975.0,
            1977.0,
            1979.0,
            1981.0,
            1983.0,
            1985.0,
            1987.0,
            1989.0,
            1991.0,
            1993.0,
            1995.0,
            1997.0,
            1999.0,
            2001.0,
            2003.0,
            2005.0,
            2007.0,
            2009.0,
            2011.0,
            2013.0,
            2015.0,
            2017.0,
            2019.0,
            2021.0,
            2023.0,
            2025.0,
            2027.0,
            2029.0,
            2031.0,
            2033.0,
            2035.0,
            2037.0,
            2039.0,
            2041.0,
            2043.0,
            2045.0,
            2047.0,
            2049.0,
            2051.0,
            2053.0,
            2055.0,
            2057.0,
            2059.0,
            2061.0,
            2063.0,
            2065.0,
            2067.0,
            2069.0,
            2073.0,
            2077.0,
            2081.0,
            2085.0,
            2089.0,
            2093.0,
            2097.0,
            2101.0,
            2103.0,
            2105.0,
            2107.0,
            2109.0,
            2111.0,
            2113.0,
            2115.0,
            2117.0,
            2119.0,
            2123.0,
            2127.0,
            2131.0,
            2135.0,
            2139.0,
            2143.0,
            2147.0,
            2151.0,
            2155.0,
            2159.0,
            2163.0,
            2171.0,
            2175.0,
            2179.0,
            2179.0,
            2183.0,
            2187.0,
            2189.0,
            2191.0,
            2199.0,
            2199.0,
            2209.0,
            2219.0,
            2229.0,
            2233.0,
            2237.0,
            2239.0,
            2241.0,
            2243.0,
            2245.0,
            2247.0,
            2249.0,
            2251.0,
            2253.0,
            2255.0,
            2257.0,
            2259.0,
            2261.0,
            2265.0,
            2269.0,
            2273.0,
            2277.0,
            2281.0,
            2285.0,
            2289.0,
            2293.0,
            2297.0,
            2301.0,
            2305.0,
            2309.0,
            2311.0,
            2313.0,
            2317.0,
            2321.0,
            2325.0,
            2329.0,
            2333.0,
            2337.0,
            2341.0,
            2345.0,
            2349.0,
            2353.0,
            2357.0,
            2361.0,
            2365.0,
            2369.0,
            2373.0,
            2377.0,
            2381.0,
            2385.0,
            2389.0,
            2393.0,
            2397.0,
            2401.0,
            2405.0,
            2409.0,
            2413.0,
            2417.0,
            2421.0,
            2425.0,
            2429.0,
            2433.0,
            2437.0,
            2441.0,
            2445.0,
            2447.0,
            2449.0,
            2451.0,
            2453.0,
            2455.0,
            2457.0,
            2459.0,
            2461.0,
            2463.0,
            2465.0,
            2467.0,
            2469.0,
            2471.0,
            2473.0,
            2475.0,
            2479.0,
            2483.0,
            2487.0,
            2491.0,
            2495.0,
            2499.0,
            2503.0,
            2507.0,
            2511.0,
            2515.0,
            2519.0,
            2523.0,
            2527.0,
            2531.0,
            2535.0,
            2539.0,
            2543.0,
            2547.0,
            2551.0,
            2555.0,
            2559.0,
            2563.0,
            2567.0,
            2571.0,
            2575.0,
            2577.0,
            2579.0,
            2583.0,
            2587.0,
            2591.0,
            2593.0,
            2595.0,
            2597.0,
            2599.0,
            2601.0,
            2603.0,
            2605.0,
            2607.0,
            2609.0,
            2611.0,
            2615.0,
            2619.0,
            2623.0,
            2627.0,
            2631.0,
            2633.0,
            2635.0,
            2637.0,
            2639.0,
            2641.0,
            2643.0,
            2645.0,
            2647.0,
            2649.0,
            2651.0,
            2653.0,
            2657.0,
            2661.0,
            2665.0,
            2669.0,
            2673.0,
            2675.0,
            2677.0,
            2679.0,
            2681.0,
            2683.0,
            2685.0,
            2689.0,
            2693.0,
            2697.0,
            2699.0,
            2701.0,
            2703.0,
            2705.0,
            2707.0,
            2709.0,
            2711.0,
            2713.0,
            2715.0,
            2717.0,
            2721.0,
            2725.0,
            2729.0,
            2733.0,
            2735.0,
            2737.0,
            2739.0
          ],
          [
            0.000134,
            0.00046,
            0.00046,
            0.0001593,
            0.00018,
            0.00034,
            0.0001608,
            0.0001844,
            0.0003463,
            0.0002254,
            0.000369,
            0.0002042,
            0.0001835,
            0.0001581,
            0.0001076,
            0.0001449,
            0.0002378,
            0.0002521,
            0.0002,
            0.0001295,
            0.0005,
            0.0006803,
            0.0006213,
            0.000514,
            0.0002655,
            0.0005542,
            0.000666,
            0.0004956,
            0.0007729,
            0.000919,
            0.00096,
            0.0006454,
            0.0006607,
            0.000349,
            0.0008214,
            0.0005573,
            0.001309,
            0.0008626,
            0.002231,
            0.0006806,
            0.002125,
            0.001187,
            0.001423,
            0.001912,
            0.001861,
            0.002328,
            0.002648,
            0.003482,
            0.003893,
            0.003852,
            0.006146,
            0.006024,
            0.006725,
            0.006769,
            0.006621,
            0.006729,
            0.005751,
            0.00441,
            0.003102,
            0.002164,
            0.001723,
            0.0004401,
            0.001238,
            0.006068,
            0.01447,
            0.02714,
            0.0242,
            0.02067,
            0.01774,
            0.02928,
            0.044,
            0.1092,
            0.1723,
            0.2932,
            0.3092,
            0.2464,
            0.08,
            0.06639,
            0.07073,
            0.07225,
            0.07571,
            0.0784,
            0.09139,
            0.1024,
            0.1377,
            0.1892,
            0.2392,
            0.2754,
            0.2996,
            0.2512,
            0.2332,
            0.2243,
            0.231,
            0.2113,
            0.2194,
            0.208,
            0.2482,
            0.2559,
            0.2342,
            0.2492,
            0.2472,
            0.7253,
            1.064,
            0.869,
            0.5755,
            0.6171,
            0.6827,
            0.7301,
            0.8539,
            0.9206,
            1.099,
            1.152,
            1.326,
            2.136,
            2.37,
            2.83,
            3.239,
            4.103,
            4.122,
            6.366,
            10.8,
            17.9,
            21.49,
            19.54,
            13.94,
            8.328,
            7.362,
            7.105,
            7.412,
            7.205,
            7.048,
            6.745,
            6.017,
            5.84,
            5.2,
            4.831,
            4.274,
            3.807,
            3.765,
            3.314,
            3.0,
            2.5,
            2.4,
            2.363,
            2.263,
            1.734,
            1.603,
            1.489,
            1.352,
            1.379,
            1.6,
            1.826,
            1.753,
            1.764,
            2.015,
            2.492,
            2.808,
            2.989,
            3.086,
            4.233,
            4.752,
            5.025,
            5.351,
            5.717,
            5.605,
            5.539,
            5.173,
            4.137,
            3.178,
            2.858,
            2.258,
            1.579,
            1.623,
            2.383,
            2.911,
            4.869,
            8.553,
            21.0,
            26.66,
            31.96,
            27.73,
            22.1,
            13.76,
            8.876,
            4.981,
            3.246,
            2.504,
            2.299,
            3.746,
            4.088,
            4.093,
            5.039,
            5.5,
            5.902,
            7.936,
            8.943,
            8.264,
            7.677,
            7.638,
            7.754,
            7.623,
            7.579,
            8.374,
            9.045,
            10.1,
            10.84,
            10.68,
            11.92,
            11.73,
            13.97,
            14.84,
            18.7,
            24.02,
            24.62,
            29.73,
            31.08,
            27.99,
            27.13,
            20.44,
            18.9,
            16.98,
            15.41,
            13.71,
            11.19,
            10.71,
            9.64,
            9.623,
            8.037,
            8.729,
            9.35,
            16.14,
            21.27,
            24.99,
            30.86,
            44.76,
            52.32,
            66.74,
            81.8,
            92.6,
            91.92,
            79.7,
            60.71,
            44.56,
            30.7,
            26.11,
            17.87,
            18.2,
            17.04,
            12.16,
            11.88,
            10.42,
            17.41,
            19.91,
            38.49,
            37.63,
            29.7,
            22.39,
            19.03,
            21.04,
            21.26,
            20.27,
            20.42,
            22.01,
            22.06,
            29.47,
            34.42,
            36.79,
            37.93,
            39.91,
            44.16,
            45.33,
            51.29,
            55.6,
            61.98,
            62.49,
            70.28,
            91.01,
            128.8,
            204.5,
            291.2,
            538.3,
            796.7,
            934.3,
            736.1,
            534.2,
            377.8,
            207.7,
            192.1,
            206.0,
            218.3,
            232.2,
            260.0,
            259.9,
            258.7,
            246.4,
            221.1,
            187.9,
            152.0,
            115.6,
            97.84,
            90.43,
            84.53,
            86.08,
            88.35,
            104.1,
            109.4,
            121.5,
            140.1,
            160.9,
            198.2,
            206.6,
            240.6,
            371.9,
            570.7,
            600.0,
            694.0,
            601.9,
            524.8,
            357.1,
            334.3,
            297.7,
            284.9,
            286.4,
            292.5,
            309.1,
            323.5,
            332.0,
            356.1,
            377.1,
            386.0,
            389.6,
            371.6,
            345.4,
            332.5,
            326.9,
            323.6,
            336.1,
            358.0,
            384.0,
            443.2,
            471.0,
            478.8,
            486.8,
            474.9,
            467.9,
            469.6,
            474.0,
            447.7,
            401.4,
            399.4,
            392.8,
            420.2,
            449.7,
            508.6,
            504.6,
            470.0,
            469.7,
            470.0,
            499.9,
            539.1,
            575.0,
            653.3,
            725.9,
            769.0,
            835.9,
            1002.0,
            1200.0,
            1657.0,
            2115.0,
            2780.0,
            3285.0,
            3636.0,
            3105.0,
            1570.0,
            1221.0,
            965.0,
            791.5,
            697.8,
            642.7,
            617.8,
            626.0,
            642.3,
            667.2,
            674.1,
            611.7,
            492.5,
            471.8,
            466.0,
            511.6,
            579.9,
            664.4,
            746.5,
            792.9,
            804.5,
            822.7,
            843.1,
            874.0,
            851.2,
            863.4,
            841.4,
            862.1,
            899.3,
            939.1,
            1085.0,
            1192.0,
            1194.0,
            1178.0,
            1091.0,
            1089.0,
            1033.0,
            1001.0,
            1093.0,
            1210.0,
            1391.0,
            1841.0,
            1931.0,
            1958.0,
            1657.0,
            1570.0,
            1473.0,
            1464.0,
            1460.0,
            1604.0,
            2015.0,
            3968.0,
            5718.0,
            8168.0,
            12070.0,
            15060.0,
            18740.0,
            22210.0,
            22650.0,
            21170.0,
            19780.0,
            17330.0,
            12660.0,
            10430.0,
            8762.0,
            7815.0,
            5623.0,
            4653.0,
            4305.0,
            3706.0,
            3217.0,
            3028.0,
            3088.0,
            2665.0,
            2558.0,
            2568.0,
            2623.0,
            3095.0,
            3020.0,
            2998.0,
            3141.0,
            2779.0,
            2898.0,
            2950.0,
            2931.0,
            3039.0,
            2961.0,
            2689.0,
            2385.0,
            2285.0,
            2275.0,
            2288.0,
            2141.0,
            2163.0,
            2130.0,
            2074.0,
            2054.0,
            2085.0,
            2070.0,
            2055.0,
            2192.0,
            2175.0,
            2193.0,
            2280.0,
            2393.0,
            2536.0,
            2797.0,
            3098.0,
            3079.0,
            2845.0,
            2832.0,
            3653.0,
            4591.0,
            5098.0,
            5218.0,
            5978.0,
            5893.0,
            5856.0,
            5835.0,
            5453.0,
            5388.0,
            4895.0,
            4875.0,
            5078.0,
            5344.0,
            5487.0,
            5495.0,
            6127.0,
            6299.0,
            6058.0,
            4805.0,
            4464.0,
            4445.0,
            4632.0,
            4181.0,
            4326.0,
            4129.0,
            3947.0,
            3968.0,
            3957.0,
            4243.0,
            4005.0,
            4062.0,
            4027.0,
            4290.0,
            4509.0,
            4501.0,
            4831.0,
            5305.0,
            4979.0,
            5181.0,
            5414.0,
            6142.0,
            5693.0,
            5600.0,
            5867.0,
            6444.0,
            7106.0,
            8787.0,
            9662.0,
            11310.0,
            12830.0,
            12520.0,
            12440.0,
            12160.0,
            10910.0,
            7934.0,
            6919.0,
            5893.0,
            5695.0,
            5719.0,
            6236.0,
            6940.0,
            7151.0,
            7177.0,
            7753.0,
            8862.0,
            8766.0,
            9799.0,
            9590.0,
            10050.0,
            9532.0,
            9217.0,
            9200.0,
            9101.0,
            8237.0,
            8504.0,
            8145.0,
            9571.0,
            10670.0,
            10540.0,
            9874.0,
            9898.0,
            8910.0,
            8680.0,
            8139.0,
            9712.0,
            9623.0,
            11060.0,
            11040.0,
            11180.0,
            11560.0,
            11510.0,
            12030.0,
            13550.0,
            13630.0,
            13430.0,
            13590.0,
            14810.0,
            14180.0,
            14550.0,
            13660.0,
            12650.0,
            12970.0,
            12560.0
          ],
          [
            null,
            null,
            null,
            null,
            null,
            null,
            null,
            null,
            null,
            null,
            null,
            null,
            null,
            null,
            null,
            null,
            null,
            null,
            null,
            null,
            null,
            0.0001794,
            0.0001896,
            0.0001634,
            0.0002299,
            null,
            0.0002975,
            0.0001798,
            0.0003122,
            0.0001941,
            0.0004921,
            0.0003242,
            0.0003521,
            0.0003465,
            0.0003832,
            0.0003751,
            0.0004399,
            0.0003703,
            0.0005733,
            0.0005654,
            0.000507,
            0.0005573,
            0.0006272,
            0.0005501,
            0.0005301,
            0.0005805,
            0.0006713,
            0.0006722,
            0.0006868,
            0.0006402,
            0.0008456,
            0.0008587,
            0.0008146,
            0.0008798,
            0.001014,
            0.0009575,
            0.0008794,
            0.0008545,
            0.00078,
            0.00077009,
            0.0007003,
            0.0001994,
            0.0003716,
            0.001533,
            0.001938,
            0.002546,
            0.002472,
            0.002196,
            0.002497,
            0.003495,
            0.004245,
            0.009009,
            0.01379,
            0.02171,
            0.02358,
            0.01804,
            0.009638,
            0.005877,
            0.006756,
            0.007225,
            0.007708,
            0.006819,
            0.007894,
            0.008862,
            0.01129,
            0.01525,
            0.01847,
            0.02077,
            0.02197,
            0.01918,
            0.01841,
            0.01719,
            0.01852,
            0.01722,
            0.01843,
            0.01786,
            0.01902,
            0.02072,
            0.01778,
            0.02142,
            0.02265,
            0.05776,
            0.07851,
            0.06589,
            0.0453,
            0.04011,
            0.05504,
            0.04746,
            0.0555,
            0.0719,
            0.1175,
            0.07485,
            0.09946,
            0.1388,
            0.1541,
            0.1839,
            0.2106,
            0.2865,
            0.2679,
            0.4138,
            0.702,
            1.163,
            1.397,
            1.27,
            0.9061,
            0.5413,
            0.4785,
            0.4618,
            0.4818,
            0.4683,
            0.4581,
            0.4384,
            0.3911,
            0.3796,
            0.338,
            0.314,
            0.2778,
            0.2475,
            0.2447,
            0.2154,
            0.195,
            0.1625,
            0.163,
            0.1536,
            0.1554,
            0.1127,
            0.1042,
            0.09676,
            0.09367,
            0.08963,
            0.104,
            0.1187,
            0.114,
            0.1147,
            0.131,
            0.162,
            0.1825,
            0.1943,
            0.2006,
            0.2751,
            0.3089,
            0.3266,
            0.3478,
            0.3716,
            0.3644,
            0.3601,
            0.3362,
            0.2689,
            0.2066,
            0.1858,
            0.1468,
            0.1026,
            0.1055,
            0.1549,
            0.1892,
            0.3165,
            0.5559,
            1.365,
            1.733,
            2.078,
            1.802,
            1.437,
            0.8943,
            0.5769,
            0.3238,
            0.211,
            0.1628,
            0.1494,
            0.2435,
            0.2657,
            0.266,
            0.3275,
            0.3575,
            0.3836,
            0.5158,
            0.5813,
            0.5371,
            0.499,
            0.4965,
            0.504,
            0.4955,
            0.4927,
            0.5443,
            0.5879,
            0.6564,
            0.7049,
            0.6944,
            0.7745,
            0.7622,
            0.9079,
            0.9645,
            1.216,
            1.561,
            1.6,
            1.932,
            2.02,
            1.819,
            1.763,
            1.328,
            1.229,
            1.104,
            1.002,
            0.8909,
            0.7273,
            0.6964,
            0.6266,
            0.6255,
            0.5224,
            0.5674,
            0.6077,
            1.049,
            1.382,
            1.624,
            2.006,
            2.91,
            3.401,
            4.338,
            5.317,
            6.019,
            5.975,
            5.18,
            3.946,
            2.897,
            1.996,
            1.697,
            1.161,
            1.183,
            1.108,
            0.7906,
            0.772,
            0.6776,
            1.132,
            1.294,
            2.502,
            2.446,
            1.93,
            1.455,
            1.237,
            1.368,
            1.382,
            1.318,
            1.327,
            1.43,
            1.434,
            1.915,
            2.237,
            2.391,
            2.465,
            2.594,
            2.871,
            2.946,
            3.334,
            3.614,
            4.029,
            4.062,
            4.568,
            5.915,
            8.374,
            13.29,
            18.93,
            34.99,
            51.79,
            60.73,
            47.85,
            34.72,
            24.56,
            13.5,
            12.49,
            13.39,
            14.19,
            15.09,
            16.9,
            16.89,
            16.81,
            16.02,
            14.37,
            12.21,
            9.877,
            7.516,
            6.36,
            5.878,
            5.495,
            5.595,
            5.743,
            6.765,
            7.11,
            7.899,
            9.107,
            10.46,
            12.88,
            13.43,
            15.64,
            24.17,
            37.1,
            39.0,
            45.11,
            39.12,
            34.11,
            23.21,
            21.73,
            19.35,
            18.52,
            18.62,
            19.01,
            20.09,
            21.03,
            21.58,
            23.15,
            24.51,
            25.09,
            25.32,
            24.15,
            22.45,
            21.61,
            21.25,
            21.04,
            21.85,
            23.27,
            24.96,
            28.81,
            30.62,
            31.12,
            31.64,
            30.87,
            30.42,
            30.52,
            30.81,
            29.1,
            26.09,
            25.96,
            25.53,
            27.31,
            29.23,
            33.06,
            32.8,
            30.55,
            30.53,
            30.55,
            32.5,
            35.04,
            37.37,
            42.47,
            47.18,
            49.98,
            54.33,
            65.12,
            77.98,
            107.7,
            137.5,
            180.7,
            213.5,
            236.3,
            201.8,
            102.1,
            79.37,
            62.73,
            51.45,
            45.35,
            41.77,
            40.15,
            40.69,
            41.75,
            43.37,
            43.82,
            39.76,
            32.01,
            30.67,
            30.29,
            33.26,
            37.69,
            43.19,
            48.52,
            51.54,
            52.29,
            53.47,
            54.8,
            56.81,
            55.33,
            56.12,
            54.69,
            56.04,
            58.46,
            61.04,
            70.51,
            77.48,
            77.62,
            76.59,
            70.94,
            70.77,
            67.17,
            65.09,
            71.03,
            78.68,
            90.43,
            119.6,
            125.5,
            127.3,
            107.7,
            102.1,
            95.74,
            95.18,
            94.91,
            104.3,
            131.0,
            257.9,
            371.7,
            530.9,
            784.3,
            978.9,
            1218.0,
            1444.0,
            1472.0,
            1376.0,
            1286.0,
            1126.0,
            823.2,
            677.7,
            569.5,
            508.0,
            365.5,
            302.5,
            279.8,
            240.9,
            209.1,
            196.8,
            200.7,
            173.2,
            166.2,
            166.9,
            170.5,
            201.2,
            196.3,
            194.9,
            204.1,
            180.6,
            188.4,
            191.7,
            190.5,
            197.5,
            192.5,
            174.8,
            155.0,
            148.5,
            147.9,
            148.7,
            139.1,
            140.6,
            138.5,
            134.8,
            133.5,
            135.5,
            134.5,
            133.6,
            142.5,
            141.4,
            142.5,
            148.2,
            155.5,
            164.9,
            181.8,
            201.4,
            200.2,
            184.9,
            184.1,
            237.5,
            298.4,
            331.3,
            339.2,
            388.6,
            383.0,
            380.7,
            379.3,
            354.4,
            350.2,
            318.1,
            316.9,
            330.0,
            347.3,
            356.6,
            357.2,
            398.2,
            409.5,
            393.8,
            312.4,
            290.2,
            288.9,
            301.1,
            271.7,
            281.2,
            268.4,
            256.6,
            257.9,
            257.2,
            275.8,
            260.3,
            264.1,
            261.8,
            278.8,
            293.1,
            292.5,
            314.0,
            344.8,
            323.6,
            336.8,
            351.9,
            399.3,
            370.1,
            364.0,
            381.3,
            418.9,
            461.9,
            571.1,
            628.0,
            735.4,
            833.8,
            814.0,
            808.8,
            790.5,
            709.0,
            515.7,
            449.8,
            383.0,
            370.2,
            371.8,
            405.3,
            451.1,
            464.8,
            466.5,
            503.9,
            576.0,
            569.8,
            637.0,
            623.3,
            653.2,
            619.6,
            599.1,
            598.0,
            591.5,
            535.4,
            552.8,
            529.4,
            622.1,
            693.4,
            685.3,
            641.8,
            643.4,
            579.2,
            564.2,
            529.0,
            631.3,
            625.5,
            719.1,
            717.6,
            726.8,
            751.2,
            748.2,
            781.8,
            880.8,
            885.8,
            873.3,
            883.3,
            962.3,
            921.8,
            945.7,
            887.7,
            822.1,
            843.0,
            816.3
          ]
        ]
      }
    },
    "003": {
      "reaction": {
        "0": {
          "x4_code": "(8-O-18(A,N)10-NE-21,,SIG)",
          "0": {
            "code": [
              "8-O-18",
              [
                "A,N"
              ],
              "10-NE-21,,SIG"
            ],
            "type": null,
            "target": "8-O-18",
            "process": "A,N",
            "sf49": "10-NE-21,,SIG",
            "sf4": "10-NE-21",
            "sf5": null,
            "sf6": "SIG",
            "sf7": null,
            "sf8": null,
            "sf9": null
          },
          "type": null,
          "free_text": ""
        }
      },
      "common": null,
      "data": {
        "heads": [
          "EN",
          "DATA",
          "DATA-ERR"
        ],
        "units": [
          "KEV",
          "MICRO-B",
          "MICRO-B"
        ],
        "data": [
          [
            851.0,
            863.0,
            869.0,
            871.0,
            876.0,
            880.0,
            884.0,
            889.0,
            892.0,
            894.0,
            898.0,
            903.0,
            910.0,
            914.0,
            919.0,
            929.0,
            934.0,
            938.0,
            942.0,
            945.0,
            946.0,
            948.0,
            950.0,
            952.0,
            953.0,
            955.0,
            957.0,
            961.0,
            966.0,
            970.0,
            973.0,
            974.0,
            975.0,
            980.0,
            985.0,
            990.0,
            995.0,
            1000.0,
            1005.0,
            1010.0,
            1015.0,
            1019.0,
            1025.0,
            1030.0,
            1036.0,
            1041.0,
            1045.0,
            1047.0,
            1049.0,
            1051.0,
            1053.0,
            1056.0,
            1057.0,
            1059.0,
            1061.0,
            1062.0,
            1064.0,
            1066.0,
            1066.0,
            1068.0,
            1070.0,
            1071.0,
            1072.0,
            1077.0,
            1081.0,
            1086.0,
            1090.0,
            1095.0,
            1102.0,
            1107.0,
            1112.0,
            1117.0,
            1117.0,
            1122.0,
            1126.0,
            1132.0,
            1138.0,
            1142.0,
            1144.0,
            1146.0,
            1148.0,
            1150.0,
            1152.0,
            1154.0,
            1156.0,
            1158.0,
            1160.0,
            1161.0,
            1163.0,
            1165.0,
            1167.0,
            1169.0,
            1171.0,
            1176.0,
            1182.0,
            1186.0,
            1191.0,
            1195.0,
            1200.0,
            1200.0,
            1205.0,
            1205.0,
            1211.0,
            1215.0,
            1220.0,
            1225.0,
            1230.0,
            1234.0,
            1242.0,
            1246.0,
            1251.0,
            1257.0,
            1262.0,
            1266.0,
            1268.0,
            1270.0,
            1271.0,
            1276.0,
            1281.0,
            1286.0,
            1291.0,
            1296.0,
            1301.0,
            1306.0,
            1311.0,
            1312.0,
            1315.0,
            1317.0,
            1319.0,
            1322.0,
            1327.0,
            1331.0,
            1337.0,
            1341.0,
            1346.0,
            1351.0,
            1356.0,
            1361.0,
            1366.0,
            1371.0,
            1376.0,
            1381.0,
            1386.0,
            1391.0,
            1396.0,
            1401.0,
            1407.0,
            1412.0,
            1417.0,
            1421.0,
            1427.0,
            1432.0,
            1437.0,
            1442.0,
            1448.0,
            1453.0,
            1458.0,
            1463.0,
            1468.0,
            1469.0,
            1475.0,
            1479.0,
            1483.0,
            1487.0,
            1490.0,
            1494.0,
            1499.0,
            1503.0,
            1507.0,
            1511.0,
            1513.0,
            1515.0,
            1516.0,
            1518.0,
            1520.0,
            1522.0,
            1524.0,
            1526.0,
            1529.0,
            1531.0,
            1532.0,
            1534.0,
            1536.0,
            1538.0,
            1540.0,
            1542.0,
            1544.0,
            1546.0,
            1548.0,
            1552.0,
            1560.0,
            1564.0,
            1567.0,
            1572.0,
            1575.0,
            1579.0,
            1583.0,
            1587.0,
            1591.0,
            1595.0,
            1599.0,
            1603.0,
            1607.0,
            1611.0,
            1615.0,
            1619.0,
            1623.0,
            1628.0,
            1631.0,
            1635.0,
            1639.0,
            1643.0,
            1647.0,
            1651.0,
            1655.0,
            1659.0,
            1663.0,
            1667.0,
            1671.0,
            1675.0,
            1683.0,
            1687.0,
            1691.0,
            1695.0,
            1699.0,
            1703.0,
            1707.0,
            1711.0,
            1715.0,
            1719.0,
            1723.0,
            1727.0,
            1731.0,
            1735.0,
            1739.0,
            1743.0,
            1747.0,
            1751.0,
            1755.0,
            1759.0,
            1763.0,
            1767.0,
            1771.0,
            1775.0,
            1779.0,
            1783.0,
            1787.0,
            1791.0,
            1795.0,
            1799.0,
            1803.0,
            1807.0,
            1811.0,
            1815.0,
            1820.0,
            1820.0,
            1824.0,
            1827.0,
            1831.0,
            1836.0,
            1840.0,
            1842.0,
            1844.0,
            1846.0,
            1848.0,
            1850.0,
            1852.0,
            1853.0,
            1855.0,
            1857.0,
            1859.0,
            1861.0,
            1863.0,
            1865.0,
            1867.0,
            1870.0,
            1871.0,
            1873.0,
            1875.0,
            1877.0,
            1879.0,
            1881.0,
            1883.0,
            1885.0,
            1887.0,
            1889.0,
            1891.0,
            1896.0,
            1901.0,
            1906.0,
            1911.0,
            1916.0,
            1921.0,
            1926.0,
            1931.0,
            1932.0,
            1935.0,
            1940.0,
            1945.0,
            1950.0,
            1955.0,
            1960.0,
            1965.0,
            1970.0
          ],
          [
            0.002168,
            0.004053,
            0.004799,
            0.006489,
            0.006632,
            0.005686,
            0.004556,
            0.005058,
            0.003696,
            0.003943,
            0.005044,
            0.006328,
            0.006648,
            0.007031,
            0.007942,
            0.007222,
            0.008956,
            0.03814,
            0.2753,
            0.4274,
            0.4911,
            0.4597,
            0.3885,
            0.2673,
            0.1599,
            0.08874,
            0.04299,
            0.02252,
            0.01933,
            0.02062,
            0.01883,
            0.01926,
            0.01933,
            0.0185,
            0.02177,
            0.02401,
            0.03634,
            0.06165,
            0.06412,
            0.05358,
            0.04194,
            0.04155,
            0.04828,
            0.05025,
            0.05828,
            0.07564,
            0.1148,
            0.1472,
            0.1987,
            0.2991,
            0.3616,
            0.4084,
            0.3946,
            0.3598,
            0.3003,
            0.2296,
            0.1645,
            0.1015,
            0.09783,
            0.0581,
            0.04736,
            0.03527,
            0.04028,
            0.03697,
            0.04435,
            0.05404,
            0.06368,
            0.07735,
            0.09457,
            0.1181,
            0.1464,
            0.1875,
            0.1828,
            0.2582,
            0.3435,
            0.5229,
            1.599,
            11.71,
            29.16,
            51.37,
            66.94,
            82.12,
            84.68,
            72.26,
            58.59,
            35.84,
            22.46,
            12.28,
            7.566,
            3.132,
            2.148,
            1.487,
            1.224,
            0.5311,
            0.2478,
            0.1719,
            0.1322,
            0.1413,
            0.1367,
            0.126,
            0.1273,
            0.1348,
            0.1295,
            0.137,
            0.1485,
            0.1707,
            0.1619,
            0.1837,
            0.2279,
            0.2733,
            0.3172,
            1.2,
            9.338,
            21.2,
            28.71,
            29.61,
            28.41,
            15.31,
            4.743,
            2.293,
            1.75,
            1.89,
            2.819,
            16.13,
            104.5,
            129.5,
            186.8,
            196.0,
            192.4,
            146.3,
            49.45,
            15.02,
            6.265,
            4.067,
            2.668,
            2.322,
            2.256,
            2.445,
            2.5,
            2.561,
            2.902,
            3.347,
            3.476,
            4.028,
            4.663,
            5.255,
            5.943,
            7.414,
            8.926,
            11.08,
            17.18,
            45.65,
            177.6,
            288.4,
            199.1,
            77.1,
            45.66,
            43.8,
            47.97,
            55.43,
            68.21,
            80.38,
            106.4,
            110.2,
            113.5,
            139.0,
            199.0,
            265.5,
            367.1,
            505.1,
            595.3,
            686.9,
            841.7,
            960.2,
            1009.0,
            1092.0,
            1190.0,
            1183.0,
            1162.0,
            1129.0,
            1053.0,
            959.1,
            882.1,
            817.2,
            721.5,
            640.7,
            595.3,
            526.0,
            492.8,
            404.0,
            270.1,
            229.0,
            195.3,
            173.2,
            150.8,
            133.3,
            124.1,
            112.6,
            103.4,
            97.23,
            93.49,
            86.36,
            83.26,
            79.12,
            73.66,
            74.93,
            67.38,
            65.5,
            63.45,
            62.3,
            59.55,
            62.36,
            60.02,
            57.15,
            62.59,
            67.84,
            65.03,
            55.75,
            54.73,
            52.13,
            54.57,
            53.02,
            56.14,
            53.43,
            53.46,
            56.59,
            53.31,
            55.86,
            57.56,
            58.89,
            55.58,
            58.13,
            60.38,
            58.03,
            60.02,
            61.81,
            61.7,
            63.1,
            64.45,
            64.03,
            67.17,
            67.26,
            68.67,
            66.76,
            72.88,
            71.2,
            74.14,
            73.69,
            74.11,
            84.6,
            90.25,
            99.62,
            126.7,
            136.3,
            144.9,
            150.7,
            141.3,
            157.0,
            188.9,
            238.8,
            297.6,
            322.1,
            346.0,
            401.7,
            502.4,
            665.1,
            825.2,
            1347.0,
            2395.0,
            3569.0,
            4886.0,
            7238.0,
            9319.0,
            10140.0,
            9875.0,
            6941.0,
            6099.0,
            4196.0,
            2815.0,
            1933.0,
            1244.0,
            1015.0,
            812.1,
            687.9,
            522.0,
            365.7,
            320.3,
            253.4,
            212.4,
            168.4,
            167.4,
            156.7,
            141.5,
            141.8,
            142.2,
            148.7,
            156.2,
            137.1,
            182.1,
            542.0,
            1461.0,
            1395.0,
            776.9,
            263.7
          ],
          [
            0.000458,
            0.0005494,
            0.0006986,
            0.0008298,
            0.0007264,
            0.0006002,
            0.0004906,
            0.0006189,
            0.0005418,
            0.0005904,
            0.0005884,
            0.0006411,
            0.0007202,
            0.0006993,
            0.0007911,
            0.0009614,
            0.001444,
            0.003683,
            0.02315,
            0.03528,
            0.04045,
            0.03785,
            0.03231,
            0.02273,
            0.01414,
            0.007352,
            0.003701,
            0.002129,
            0.001856,
            0.001902,
            0.001808,
            0.001811,
            0.001826,
            0.00183,
            0.002268,
            0.002186,
            0.003244,
            0.005307,
            0.005624,
            0.004792,
            0.003853,
            0.003758,
            0.004493,
            0.004608,
            0.005118,
            0.006581,
            0.009777,
            0.01237,
            0.01655,
            0.02474,
            0.02987,
            0.03366,
            0.03261,
            0.02991,
            0.02509,
            0.01942,
            0.01399,
            0.008822,
            0.008486,
            0.005528,
            0.004726,
            0.004023,
            0.004026,
            0.003586,
            0.004112,
            0.004846,
            0.005583,
            0.006848,
            0.008168,
            0.009812,
            0.01267,
            0.01566,
            0.01551,
            0.02201,
            0.02946,
            0.04389,
            0.1369,
            0.9793,
            2.421,
            4.215,
            5.512,
            6.721,
            6.971,
            5.944,
            4.832,
            2.934,
            1.847,
            1.02,
            0.6335,
            0.2584,
            0.1824,
            0.1278,
            0.1002,
            0.04433,
            0.0216,
            0.01523,
            0.01227,
            0.01258,
            0.01261,
            0.01206,
            0.01203,
            0.0126,
            0.01232,
            0.01229,
            0.01295,
            0.01509,
            0.01375,
            0.01628,
            0.02101,
            0.02666,
            0.03111,
            0.1085,
            0.7922,
            1.735,
            2.39,
            2.478,
            2.377,
            1.277,
            0.3965,
            0.1961,
            0.1519,
            0.1622,
            0.2474,
            1.359,
            8.677,
            10.76,
            15.5,
            16.07,
            15.98,
            12.06,
            4.074,
            1.249,
            0.5192,
            0.3421,
            0.2288,
            0.1959,
            0.1948,
            0.2102,
            0.2136,
            0.2217,
            0.2489,
            0.286,
            0.2993,
            0.3441,
            0.3998,
            0.4468,
            0.5044,
            0.6295,
            0.7464,
            0.9299,
            1.406,
            3.724,
            14.46,
            23.55,
            16.2,
            6.338,
            3.793,
            3.621,
            4.075,
            4.634,
            5.705,
            6.674,
            9.102,
            9.277,
            9.553,
            11.56,
            16.71,
            22.19,
            31.2,
            41.72,
            49.07,
            57.3,
            69.37,
            80.69,
            84.15,
            92.37,
            99.01,
            97.61,
            97.02,
            93.36,
            86.9,
            80.53,
            73.36,
            68.41,
            59.81,
            53.21,
            49.85,
            44.14,
            41.46,
            33.52,
            22.44,
            19.25,
            16.51,
            14.82,
            12.52,
            11.24,
            10.56,
            9.374,
            8.56,
            8.133,
            7.826,
            7.355,
            7.114,
            6.82,
            6.18,
            6.473,
            5.783,
            5.587,
            5.412,
            5.279,
            5.09,
            5.354,
            5.129,
            4.895,
            5.349,
            5.833,
            5.616,
            4.756,
            4.674,
            4.441,
            4.603,
            4.439,
            4.729,
            4.479,
            4.506,
            4.804,
            4.494,
            4.72,
            4.821,
            4.855,
            4.747,
            4.883,
            5.192,
            4.986,
            5.102,
            5.262,
            5.046,
            5.242,
            5.337,
            5.452,
            5.673,
            5.642,
            5.846,
            5.591,
            6.133,
            6.083,
            6.292,
            6.251,
            6.211,
            7.054,
            7.593,
            8.425,
            10.89,
            11.62,
            12.49,
            13.06,
            12.23,
            13.58,
            16.26,
            20.6,
            25.42,
            27.83,
            29.91,
            34.83,
            42.64,
            57.4,
            72.49,
            164.9,
            283.2,
            418.0,
            546.4,
            847.5,
            1052.0,
            1159.0,
            1143.0,
            787.6,
            607.5,
            422.2,
            273.9,
            191.7,
            119.5,
            97.91,
            79.93,
            65.93,
            52.59,
            36.73,
            31.49,
            25.58,
            21.27,
            16.82,
            16.89,
            15.34,
            14.16,
            14.27,
            14.46,
            15.24,
            16.08,
            13.39,
            18.43,
            54.71,
            146.6,
            126.8,
            71.27,
            24.1
          ]
        ]
      }
    },
    "004": {
      "reaction": {
        "0": {
          "x4_code": "(8-O-17(A,N)10-NE-20,,SIG)",
          "0": {
            "code": [
              "8-O-17",
              [
                "A,N"
              ],
              "10-NE-20,,SIG"
            ],
            "type": null,
            "target": "8-O-17",
            "process": "A,N",
            "sf49": "10-NE-20,,SIG",
            "sf4": "10-NE-20",
            "sf5": null,
            "sf6": "SIG",
            "sf7": null,
            "sf8": null,
            "sf9": null
          },
          "type": null,
          "free_text": ""
        }
      },
      "common": null,
      "data": {
        "heads": [
          "EN",
          "DATA",
          "DATA-ERR"
        ],
        "units": [
          "KEV",
          "MICRO-B",
          "MICRO-B"
        ],
        "data": [
          [
            644.0,
            664.0,
            683.0,
            703.0,
            714.0,
            724.0,
            741.0,
            744.0,
            746.0,
            748.0,
            753.0,
            757.0,
            758.0,
            762.0,
            763.0,
            767.0,
            769.0,
            772.0,
            774.0,
            777.0,
            781.0,
            787.0,
            797.0,
            807.0,
            817.0,
            822.0,
            827.0,
            831.0,
            836.0,
            841.0,
            846.0,
            853.0,
            857.0,
            862.0,
            862.0,
            867.0,
            872.0,
            875.0,
            877.0,
            879.0,
            882.0,
            887.0,
            892.0,
            897.0,
            902.0,
            907.0,
            912.0,
            917.0,
            922.0,
            926.0,
            928.0,
            932.0,
            936.0,
            946.0,
            948.0,
            950.0,
            952.0,
            954.0,
            954.0,
            956.0,
            958.0,
            959.0,
            960.0,
            961.0,
            963.0,
            965.0,
            965.0,
            967.0,
            969.0,
            969.0,
            971.0,
            973.0,
            973.0,
            973.0,
            974.0,
            976.0,
            979.0,
            981.0,
            982.0,
            984.0,
            988.0,
            990.0,
            992.0,
            992.0,
            993.0,
            995.0,
            997.0,
            999.0,
            999.0,
            1003.0,
            1007.0,
            1011.0,
            1013.0,
            1016.0,
            1018.0,
            1020.0,
            1022.0,
            1023.0,
            1026.0,
            1026.0,
            1028.0,
            1028.0,
            1030.0,
            1030.0,
            1032.0,
            1034.0,
            1039.0,
            1041.0,
            1042.0,
            1046.0,
            1049.0,
            1051.0,
            1055.0,
            1057.0,
            1059.0,
            1064.0,
            1074.0,
            1078.0,
            1079.0,
            1084.0,
            1089.0,
            1094.0,
            1099.0,
            1102.0,
            1104.0,
            1106.0,
            1108.0,
            1110.0,
            1112.0,
            1114.0,
            1116.0,
            1118.0,
            1120.0,
            1122.0,
            1124.0,
            1126.0,
            1128.0,
            1130.0,
            1132.0,
            1134.0,
            1136.0,
            1138.0,
            1140.0,
            1142.0,
            1144.0,
            1146.0,
            1148.0,
            1150.0,
            1152.0,
            1154.0,
            1156.0,
            1158.0,
            1160.0,
            1162.0,
            1164.0,
            1166.0,
            1168.0,
            1170.0,
            1172.0,
            1174.0,
            1176.0,
            1178.0,
            1180.0,
            1182.0,
            1186.0,
            1190.0,
            1194.0,
            1194.0,
            1198.0,
            1202.0,
            1206.0,
            1210.0,
            1214.0,
            1218.0,
            1222.0,
            1226.0,
            1228.0,
            1230.0,
            1232.0,
            1234.0,
            1237.0,
            1238.0,
            1240.0,
            1242.0,
            1244.0,
            1246.0,
            1250.0,
            1264.0,
            1285.0,
            1289.0,
            1297.0,
            1331.0,
            1333.0,
            1335.0,
            1337.0,
            1339.0,
            1341.0,
            1343.0,
            1345.0,
            1347.0,
            1349.0,
            1350.0,
            1352.0,
            1354.0,
            1356.0,
            1360.0,
            1364.0,
            1368.0,
            1372.0,
            1376.0,
            1378.0,
            1380.0,
            1382.0,
            1386.0,
            1390.0,
            1394.0,
            1394.0,
            1398.0,
            1402.0,
            1406.0,
            1410.0,
            1415.0,
            1419.0,
            1423.0,
            1427.0,
            1431.0,
            1433.0,
            1435.0,
            1437.0,
            1439.0,
            1441.0,
            1443.0,
            1447.0,
            1451.0,
            1455.0,
            1459.0,
            1463.0,
            1467.0,
            1471.0,
            1483.0,
            1499.0,
            1507.0,
            1516.0,
            1555.0,
            1559.0,
            1563.0,
            1567.0,
            1571.0,
            1576.0,
            1579.0,
            1583.0,
            1587.0,
            1591.0,
            1592.0,
            1592.0,
            1593.0,
            1595.0,
            1597.0,
            1599.0,
            1601.0,
            1603.0,
            1605.0,
            1607.0,
            1609.0,
            1611.0,
            1612.0,
            1612.0,
            1613.0,
            1613.0,
            1615.0,
            1616.0,
            1617.0,
            1618.0,
            1620.0,
            1622.0,
            1624.0,
            1626.0,
            1628.0,
            1630.0,
            1632.0,
            1634.0,
            1636.0,
            1638.0,
            1640.0,
            1642.0,
            1644.0,
            1646.0,
            1648.0,
            1650.0,
            1651.0,
            1652.0,
            1654.0,
            1656.0,
            1658.0,
            1662.0,
            1666.0,
            1670.0,
            1674.0,
            1678.0,
            1681.0,
            1682.0,
            1686.0,
            1689.0,
            1693.0,
            1697.0,
            1701.0,
            1706.0,
            1709.0,
            1714.0,
            1718.0,
            1722.0,
            1726.0,
            1732.0,
            1734.0,
            1736.0,
            1738.0,
            1740.0,
            1742.0,
            1744.0,
            1746.0,
            1747.0,
            1750.0,
            1752.0,
            1754.0,
            1756.0,
            1758.0,
            1760.0,
            1762.0,
            1762.0,
            1764.0,
            1765.0,
            1766.0,
            1766.0,
            1767.0,
            1769.0,
            1770.0,
            1771.0,
            1774.0,
            1774.0,
            1777.0,
            1779.0,
            1781.0,
            1782.0,
            1784.0,
            1784.0,
            1786.0,
            1788.0,
            1790.0,
            1792.0,
            1794.0,
            1796.0,
            1798.0,
            1800.0,
            1802.0,
            1804.0,
            1806.0,
            1808.0,
            1810.0,
            1812.0,
            1815.0,
            1816.0,
            1819.0,
            1822.0,
            1826.0,
            1828.0,
            1830.0,
            1832.0,
            1832.0,
            1833.0,
            1834.0,
            1836.0,
            1838.0,
            1838.0,
            1838.0,
            1840.0,
            1840.0,
            1842.0,
            1842.0,
            1844.0,
            1846.0,
            1849.0,
            1851.0,
            1852.0,
            1853.0,
            1853.0,
            1856.0,
            1859.0,
            1863.0,
            1867.0,
            1868.0,
            1870.0,
            1872.0,
            1874.0,
            1876.0,
            1877.0,
            1878.0,
            1881.0,
            1882.0,
            1885.0,
            1886.0,
            1889.0,
            1890.0,
            1893.0,
            1897.0,
            1901.0,
            1905.0,
            1909.0,
            1913.0,
            1916.0,
            1920.0,
            1924.0,
            1928.0,
            1933.0,
            1936.0,
            1940.0,
            1942.0,
            1942.0,
            1943.0,
            1945.0,
            1946.0,
            1947.0,
            1948.0,
            1950.0,
            1952.0,
            1954.0,
            1956.0,
            1958.0,
            1961.0,
            1962.0,
            1965.0,
            1967.0,
            1969.0,
            1971.0,
            1973.0,
            1975.0,
            1977.0,
            1979.0,
            1981.0,
            1983.0
          ],
          [
            0.00108,
            0.00068,
            0.00244,
            0.00118,
            0.00546,
            0.00188,
            0.00194,
            0.00233,
            0.00674,
            0.00968,
            0.0188,
            0.0269,
            0.0258,
            0.0276,
            0.0214,
            0.0133,
            0.0074,
            0.00758,
            0.00463,
            0.00325,
            0.00292,
            0.00218,
            0.0008,
            0.00109,
            0.00149,
            0.00242,
            0.00226,
            0.00447,
            0.00602,
            0.00757,
            0.0138,
            0.0285,
            0.0439,
            0.122,
            0.14,
            0.68,
            2.56,
            3.72,
            4.29,
            4.34,
            3.79,
            2.06,
            0.836,
            0.409,
            0.243,
            0.151,
            0.111,
            0.0886,
            0.0723,
            0.0681,
            0.069,
            0.0567,
            0.0338,
            0.11,
            0.143,
            0.246,
            0.257,
            0.221,
            0.167,
            0.228,
            0.13,
            0.102,
            0.0607,
            0.14,
            0.148,
            0.373,
            0.321,
            0.844,
            1.83,
            1.67,
            2.81,
            4.0,
            4.01,
            3.99,
            4.56,
            4.73,
            4.53,
            3.78,
            2.79,
            1.71,
            0.767,
            0.42,
            0.314,
            0.331,
            0.275,
            0.237,
            0.206,
            0.16,
            0.163,
            0.122,
            0.118,
            0.382,
            0.917,
            2.04,
            3.6,
            5.34,
            6.07,
            6.8,
            7.08,
            5.46,
            5.88,
            4.46,
            4.13,
            2.8,
            2.39,
            1.59,
            0.348,
            0.297,
            0.216,
            0.174,
            0.219,
            0.164,
            0.164,
            0.124,
            0.129,
            0.21,
            0.228,
            0.224,
            0.237,
            0.266,
            0.323,
            0.376,
            0.412,
            0.456,
            0.453,
            0.496,
            0.579,
            0.686,
            1.15,
            2.18,
            3.64,
            4.68,
            5.25,
            4.63,
            3.63,
            2.68,
            2.22,
            2.01,
            1.84,
            2.08,
            1.5,
            2.77,
            11.2,
            22.0,
            32.7,
            43.9,
            43.2,
            30.1,
            17.8,
            10.3,
            8.36,
            8.89,
            9.72,
            10.9,
            10.2,
            9.65,
            8.29,
            7.02,
            5.52,
            4.98,
            3.92,
            3.22,
            2.61,
            2.36,
            1.7,
            1.55,
            1.21,
            1.27,
            1.02,
            0.823,
            0.757,
            0.723,
            0.688,
            0.645,
            0.731,
            0.838,
            0.808,
            0.896,
            1.13,
            1.49,
            1.69,
            1.84,
            1.73,
            1.47,
            1.28,
            1.02,
            0.575,
            0.121,
            0.159,
            0.462,
            0.649,
            3.52,
            9.82,
            20.5,
            28.3,
            30.5,
            26.5,
            19.2,
            10.6,
            7.18,
            4.91,
            4.36,
            4.01,
            3.86,
            3.67,
            3.54,
            4.17,
            4.59,
            12.6,
            25.9,
            27.0,
            23.9,
            17.5,
            9.3,
            8.19,
            8.96,
            8.87,
            10.5,
            12.5,
            16.0,
            19.5,
            27.6,
            43.0,
            69.8,
            175.0,
            677.0,
            1300.0,
            1650.0,
            1820.0,
            1690.0,
            1240.0,
            801.0,
            350.0,
            128.0,
            72.9,
            45.5,
            27.9,
            19.2,
            12.8,
            9.88,
            8.69,
            10.1,
            15.3,
            31.6,
            43.6,
            46.7,
            56.8,
            63.3,
            67.4,
            76.9,
            84.6,
            95.1,
            110.0,
            102.0,
            113.0,
            106.0,
            124.0,
            134.0,
            144.0,
            145.0,
            176.0,
            164.0,
            219.0,
            223.0,
            260.0,
            308.0,
            254.0,
            350.0,
            307.0,
            396.0,
            356.0,
            353.0,
            366.0,
            369.0,
            356.0,
            337.0,
            343.0,
            341.0,
            349.0,
            353.0,
            366.0,
            348.0,
            352.0,
            344.0,
            345.0,
            334.0,
            335.0,
            338.0,
            328.0,
            328.0,
            323.0,
            324.0,
            324.0,
            326.0,
            322.0,
            326.0,
            336.0,
            345.0,
            356.0,
            368.0,
            369.0,
            378.0,
            407.0,
            431.0,
            438.0,
            492.0,
            516.0,
            558.0,
            612.0,
            630.0,
            684.0,
            779.0,
            744.0,
            763.0,
            800.0,
            885.0,
            904.0,
            1090.0,
            1200.0,
            1230.0,
            1320.0,
            1430.0,
            1590.0,
            1710.0,
            1860.0,
            1950.0,
            2130.0,
            2170.0,
            2050.0,
            1980.0,
            1980.0,
            2350.0,
            2030.0,
            1940.0,
            1910.0,
            1850.0,
            2030.0,
            1870.0,
            1820.0,
            1730.0,
            2110.0,
            2520.0,
            3360.0,
            3950.0,
            3840.0,
            3360.0,
            2670.0,
            1090.0,
            955.0,
            556.0,
            458.0,
            417.0,
            338.0,
            313.0,
            321.0,
            310.0,
            278.0,
            297.0,
            275.0,
            305.0,
            292.0,
            338.0,
            282.0,
            325.0,
            335.0,
            468.0,
            491.0,
            494.0,
            520.0,
            654.0,
            802.0,
            896.0,
            1180.0,
            1130.0,
            1550.0,
            1760.0,
            1850.0,
            1860.0,
            2020.0,
            1840.0,
            1510.0,
            936.0,
            333.0,
            228.0,
            217.0,
            230.0,
            232.0,
            298.0,
            370.0,
            442.0,
            403.0,
            488.0,
            432.0,
            487.0,
            539.0,
            547.0,
            540.0,
            597.0,
            743.0,
            675.0,
            825.0,
            692.0,
            717.0,
            728.0,
            823.0,
            779.0,
            848.0,
            724.0,
            888.0,
            871.0,
            916.0,
            954.0,
            1100.0,
            1530.0,
            1950.0,
            2270.0,
            2400.0,
            2180.0,
            2660.0,
            2940.0,
            3140.0,
            3700.0,
            4570.0,
            6010.0,
            8020.0,
            9050.0,
            9900.0,
            9790.0,
            8810.0,
            7760.0,
            7090.0,
            7000.0,
            6110.0,
            6080.0,
            5160.0,
            5060.0,
            4340.0,
            4070.0,
            4140.0
          ],
          [
            null,
            0.000314,
            null,
            null,
            null,
            0.000508,
            0.000525,
            0.00057,
            0.000839,
            0.0012,
            0.00204,
            0.00265,
            0.0024,
            0.00258,
            0.00199,
            0.00145,
            0.000878,
            0.00101,
            0.000881,
            0.000702,
            0.000662,
            0.000558,
            0.000788,
            0.000373,
            0.000408,
            0.000487,
            0.000528,
            0.000746,
            0.000861,
            0.00102,
            0.00139,
            0.00272,
            0.00433,
            0.0118,
            0.0128,
            0.0649,
            0.229,
            0.324,
            0.372,
            0.375,
            0.328,
            0.182,
            0.0752,
            0.0358,
            0.0214,
            0.0133,
            0.00979,
            0.00786,
            0.00651,
            0.00606,
            0.00609,
            0.00514,
            0.00302,
            0.0098,
            0.0132,
            0.0229,
            0.0234,
            0.0207,
            0.0146,
            0.0217,
            0.0138,
            0.00969,
            0.00609,
            0.0124,
            0.0136,
            0.0346,
            0.027,
            0.0747,
            0.158,
            0.145,
            0.244,
            0.331,
            0.338,
            0.333,
            0.382,
            0.406,
            0.387,
            0.324,
            0.238,
            0.149,
            0.0656,
            0.0382,
            0.0308,
            0.03,
            0.0255,
            0.0233,
            0.0205,
            0.0181,
            0.0168,
            0.0128,
            0.014,
            0.0381,
            0.0925,
            0.187,
            0.326,
            0.468,
            0.53,
            0.556,
            0.579,
            0.477,
            0.482,
            0.399,
            0.341,
            0.262,
            0.2,
            0.157,
            0.0313,
            0.0271,
            0.0203,
            0.0157,
            0.0192,
            0.0144,
            0.0143,
            0.0112,
            0.0125,
            0.0191,
            0.0205,
            0.02,
            0.0221,
            0.0232,
            0.0285,
            0.0331,
            0.0367,
            0.0402,
            0.0402,
            0.0435,
            0.0525,
            0.0612,
            0.103,
            0.192,
            0.312,
            0.392,
            0.444,
            0.393,
            0.306,
            0.233,
            0.195,
            0.177,
            0.157,
            0.177,
            0.125,
            0.229,
            0.916,
            1.79,
            2.65,
            3.55,
            3.5,
            2.43,
            1.45,
            0.836,
            0.683,
            0.728,
            0.799,
            0.895,
            0.838,
            0.801,
            0.69,
            0.586,
            0.466,
            0.423,
            0.329,
            0.279,
            0.227,
            0.21,
            0.155,
            0.133,
            0.105,
            0.109,
            0.0906,
            0.0751,
            0.0698,
            0.0665,
            0.061,
            0.0597,
            0.0667,
            0.0778,
            0.0729,
            0.0822,
            0.0972,
            0.129,
            0.143,
            0.157,
            0.149,
            0.127,
            0.112,
            0.0893,
            0.0516,
            0.00991,
            0.0145,
            0.0403,
            0.056,
            0.293,
            0.811,
            1.67,
            2.31,
            2.49,
            2.17,
            1.57,
            0.874,
            0.597,
            0.413,
            0.368,
            0.336,
            0.324,
            0.31,
            0.296,
            0.347,
            0.384,
            1.04,
            2.12,
            2.21,
            1.97,
            1.44,
            0.773,
            0.684,
            0.741,
            0.725,
            0.861,
            1.03,
            1.32,
            1.6,
            2.25,
            3.51,
            5.69,
            14.2,
            54.8,
            105.0,
            134.0,
            148.0,
            137.0,
            100.0,
            64.9,
            28.5,
            10.4,
            5.95,
            3.72,
            2.28,
            1.57,
            1.04,
            0.807,
            0.703,
            0.819,
            1.24,
            2.59,
            3.6,
            3.83,
            4.71,
            5.24,
            5.59,
            6.32,
            6.97,
            7.85,
            9.05,
            8.38,
            9.29,
            8.67,
            10.1,
            11.0,
            11.9,
            12.0,
            14.5,
            13.5,
            18.1,
            18.3,
            21.2,
            25.2,
            20.9,
            29.0,
            25.1,
            32.9,
            29.1,
            29.0,
            30.1,
            30.3,
            29.2,
            27.7,
            28.1,
            28.0,
            28.6,
            29.0,
            30.0,
            28.5,
            28.9,
            28.2,
            28.3,
            27.4,
            27.4,
            27.6,
            26.8,
            26.7,
            26.2,
            26.5,
            26.5,
            26.7,
            26.5,
            26.6,
            27.5,
            28.2,
            29.0,
            30.1,
            30.2,
            30.9,
            33.3,
            35.1,
            38.1,
            43.1,
            44.8,
            48.1,
            52.1,
            52.0,
            57.3,
            65.3,
            64.4,
            66.4,
            69.2,
            73.7,
            81.1,
            95.6,
            112.0,
            112.0,
            115.0,
            128.0,
            138.0,
            148.0,
            161.0,
            169.0,
            184.0,
            188.0,
            189.0,
            171.0,
            171.0,
            221.0,
            174.0,
            168.0,
            165.0,
            161.0,
            175.0,
            181.0,
            158.0,
            150.0,
            182.0,
            218.0,
            290.0,
            377.0,
            328.0,
            290.0,
            231.0,
            101.0,
            82.8,
            52.1,
            40.1,
            40.2,
            29.5,
            29.8,
            27.7,
            30.1,
            24.3,
            29.0,
            24.1,
            28.1,
            25.5,
            33.2,
            24.8,
            32.1,
            28.9,
            47.4,
            47.7,
            42.6,
            45.4,
            56.9,
            69.7,
            77.6,
            102.0,
            110.0,
            134.0,
            173.0,
            180.0,
            161.0,
            174.0,
            173.0,
            131.0,
            81.1,
            28.9,
            19.8,
            21.4,
            19.8,
            20.1,
            25.8,
            37.0,
            38.1,
            34.6,
            42.0,
            37.3,
            41.5,
            51.3,
            47.4,
            45.1,
            51.7,
            65.9,
            58.6,
            81.3,
            60.0,
            66.3,
            73.4,
            78.3,
            74.4,
            81.4,
            69.5,
            92.3,
            80.4,
            78.9,
            81.4,
            95.2,
            130.0,
            167.0,
            197.0,
            208.0,
            189.0,
            228.0,
            252.0,
            267.0,
            321.0,
            393.0,
            518.0,
            688.0,
            773.0,
            851.0,
            837.0,
            768.0,
            669.0,
            612.0,
            603.0,
            526.0,
            521.0,
            445.0,
            431.0,
            374.0,
            347.0,
            357.0
          ]
        ]
      }
    }
  },
  "experimental_conditions": {
    "001": {
      "detector": {
        "0": [
          {
            "x4_code": "(SCIN,D4PI)",
            "free_txt": [
              " NE213 liquid scintillation detectors and a",
              "long counter like 4PI-detector"
            ]
          }
        ]
      },
      "err-analys": {
        "0": [
          {
            "x4_code": "(DATA-ERR)",
            "free_txt": [
              ".No information on source of uncertainty"
            ]
          }
        ]
      },
      "facility": {
        "0": [
          {
            "x4_code": "(DYNAM,2GERIFS)",
            "free_txt": [
              " 4 MV DYNAMITRON accelerator"
            ]
          }
        ]
      },
      "method": {
        "0": [
          {
            "x4_code": "(SITA)",
            "free_txt": []
          },
          {
            "x4_code": "(BCINT)",
            "free_txt": []
          }
        ]
      },
      "rel-ref": {
        "0": [
          {
            "x4_code": "(O,A0443004,R.Kunz+,J,PR/C,53,2486,1996)",
            "free_txt": [
              " data for",
              "9-Be(a,n)12-C reaction"
            ]
          },
          {
            "x4_code": "(O,A0616001,H.W.Drotleff+,J,AJ,414,735,1993)",
            "free_txt": [
              " data for",
              "6-C-13(a,n)8-O-16 and 10-NE-22(a,n)12-MG-25"
            ]
          }
        ]
      },
      "sample": {
        "0": [
          {
            "x4_code": null,
            "free_txt": [
              "Gas target were used."
            ]
          }
        ]
      },
      "status": {
        "0": [
          {
            "x4_code": "(TABLE)",
            "free_txt": [
              ".Table of T,Denker,1994"
            ]
          }
        ]
      }
    },
    "002": {
      "comment": {
        "0": [
          {
            "x4_code": null,
            "free_txt": [
              "The measured yield has been corrected for a",
              "contribution of 3% of Ne-22 in the Ne-21-gas."
            ]
          }
        ]
      }
    },
    "003": {},
    "004": {
      "correction": {
        "0": [
          {
            "x4_code": null,
            "free_txt": [
              "Because the gas for the O-17 measurements was only",
              "enriched to 50% and containing 29% of O-18, the",
              "measured yield corrected with our O-18 data."
            ]
          }
        ]
      },
      "status": {
        "0": [
          {
            "x4_code": "(DEP,O2293003)",
            "free_txt": [
              " O-18(a,n)Ne-21 cross section"
            ]
          }
        ]
      }
    }
  }
}