{
  "entry": "40305",
  "last_updated": "2010-02-09",
  "number_of_revisions": "5",
  "histories": [
    {
      "x4_code": "(19751109C)",
      "free_txt": [
        " Compiled at the center"
      ]
    },
    {
      "x4_code": "(19781026A)",
      "free_txt": [
        " Data of Subents 40305002 and 40305003 are",
        "           completed with some new records ."
      ]
    },
    {
      "x4_code": "(19831215A)",
      "free_txt": []
    },
    {
      "x4_code": "(19861111U)",
      "free_txt": [
        " Author's names rearranged on the request ."
      ]
    },
    {
      "x4_code": "(20090415A)",
      "free_txt": [
        " M.M. BIB information was added.",
        " Dates were corrected for 4-digits year.",
        " Subent 004 was corrected. Subents 006-010 were added."
      ]
    },
    {
      "x4_code": "(20091125A)",
      "free_txt": [
        " Subent 006 was corrected."
      ]
    }
  ],
  "bib_record": {
    "title": "total neutron cross section and neutron resonance parameters of Am-241 in energy range 0.004-30 eV.",
    "authors": [
      {
        "name": "T.S.Belanova"
      },
      {
        "name": "A.G.Kolesov"
      },
      {
        "name": "V.A.Poruchikov"
      },
      {
        "name": "G.A.Timofeev"
      },
      {
        "name": "S.M.Kalebin"
      },
      {
        "name": "V.S.Artamonov"
      },
      {
        "name": "R.N.Ivanov"
      }
    ],
    "institutes": [
      {
        "x4_code": "(4RUSNIR)",
        "free_txt": []
      },
      {
        "x4_code": "(4RUSITE)",
        "free_txt": []
      }
    ],
    "references": [
      {
        "x4_code": "(J,AE,40,(4),303,197604)",
        "free_txt": [
          " Res.parameters Table is given.",
          "  First author S.M.Kalebin."
        ],
        "publication_year": "1976",
        "pointer": "0"
      },
      {
        "x4_code": "(J,AE,38,(1),29,197501)",
        "free_txt": [
          " Res.parameters Tables are given",
          "     First author T.S.Belanova."
        ],
        "publication_year": "1975",
        "pointer": "0"
      },
      {
        "x4_code": "(C,75KIEV,3,214,197605)",
        "free_txt": [
          " Res. parameters Table is given.",
          "     First author T.S.Belanova."
        ],
        "publication_year": "1976",
        "pointer": "0"
      },
      {
        "x4_code": "(R,NIIAR-307,1977)",
        "free_txt": [],
        "publication_year": "1977",
        "pointer": "0"
      },
      {
        "x4_code": "(J,SJA,40,373,1976)",
        "free_txt": [
          "  Engl.translation of J,AE,40,303 ."
        ],
        "publication_year": "1976",
        "pointer": "0"
      },
      {
        "x4_code": "(J,SJA,38,33,1975)",
        "free_txt": [
          "  Engl.translation of J,AE,38,29 ."
        ],
        "publication_year": "1975",
        "pointer": "0"
      }
    ],
    "facilities": [
      {
        "x4_code": "(REAC,4RUSNIR)",
        "free_txt": [
          "  Data above 8 eV ."
        ],
        "pointer": "0",
        "facility_type": "(REAC)",
        "institute": "(4RUSNIR)"
      },
      {
        "x4_code": "(REAC,4RUSITE)",
        "free_txt": [
          "  Data below 8 eV ."
        ],
        "pointer": "0",
        "facility_type": "(REAC)",
        "institute": "(4RUSITE)"
      }
    ]
  },
  "reactions": {
    "002": {
      "1": {
        "x4_code": "(95-AM-241(N,0),,EN)",
        "children": [
          {
            "code": [
              "95-AM-241",
              [
                "N,0"
              ],
              ",,EN"
            ],
            "type": null,
            "target": "95-AM-241",
            "process": "N,0",
            "sf49": ",,EN",
            "sf4": null,
            "sf5": null,
            "sf6": "EN",
            "sf7": null,
            "sf8": null,
            "sf9": null
          }
        ],
        "type": null,
        "free_text": " Resonance energy"
      },
      "2": {
        "x4_code": "(95-AM-241(N,TOT),,WID)",
        "children": [
          {
            "code": [
              "95-AM-241",
              [
                "N,TOT"
              ],
              ",,WID"
            ],
            "type": null,
            "target": "95-AM-241",
            "process": "N,TOT",
            "sf49": ",,WID",
            "sf4": null,
            "sf5": null,
            "sf6": "WID",
            "sf7": null,
            "sf8": null,
            "sf9": null
          }
        ],
        "type": null,
        "free_text": "  Total width of resonance"
      },
      "3": {
        "x4_code": "(95-AM-241(N,EL),,WID,,2G)",
        "children": [
          {
            "code": [
              "95-AM-241",
              [
                "N,EL"
              ],
              ",,WID,,2G"
            ],
            "type": null,
            "target": "95-AM-241",
            "process": "N,EL",
            "sf49": ",,WID,,2G",
            "sf4": null,
            "sf5": null,
            "sf6": "WID",
            "sf7": null,
            "sf8": "2G",
            "sf9": null
          }
        ],
        "type": null,
        "free_text": ""
      }
    },
    "003": {
      "0": {
        "x4_code": "(95-AM-241(N,TOT),,SIG,,RES)",
        "children": [
          {
            "code": [
              "95-AM-241",
              [
                "N,TOT"
              ],
              ",,SIG,,RES"
            ],
            "type": null,
            "target": "95-AM-241",
            "process": "N,TOT",
            "sf49": ",,SIG,,RES",
            "sf4": null,
            "sf5": null,
            "sf6": "SIG",
            "sf7": null,
            "sf8": "RES",
            "sf9": null
          }
        ],
        "type": null,
        "free_text": " Total peak cross-sectionof resonance ."
      }
    },
    "004": {
      "0": {
        "x4_code": "(95-AM-241(N,TOT),,SIG)",
        "children": [
          {
            "code": [
              "95-AM-241",
              [
                "N,TOT"
              ],
              ",,SIG"
            ],
            "type": null,
            "target": "95-AM-241",
            "process": "N,TOT",
            "sf49": ",,SIG",
            "sf4": null,
            "sf5": null,
            "sf6": "SIG",
            "sf7": null,
            "sf8": null,
            "sf9": null
          }
        ],
        "type": null,
        "free_text": " Total cross section ."
      }
    },
    "005": {
      "0": {
        "x4_code": "(95-AM-241(N,TOT),,SIG)",
        "children": [
          {
            "code": [
              "95-AM-241",
              [
                "N,TOT"
              ],
              ",,SIG"
            ],
            "type": null,
            "target": "95-AM-241",
            "process": "N,TOT",
            "sf49": ",,SIG",
            "sf4": null,
            "sf5": null,
            "sf6": "SIG",
            "sf7": null,
            "sf8": null,
            "sf9": null
          }
        ],
        "type": null,
        "free_text": " Total cross section ."
      }
    },
    "006": {
      "1": {
        "x4_code": "(95-AM-241(N,TOT),,SIG)",
        "children": [
          {
            "code": [
              "95-AM-241",
              [
                "N,TOT"
              ],
              ",,SIG"
            ],
            "type": null,
            "target": "95-AM-241",
            "process": "N,TOT",
            "sf49": ",,SIG",
            "sf4": null,
            "sf5": null,
            "sf6": "SIG",
            "sf7": null,
            "sf8": null,
            "sf9": null
          }
        ],
        "type": null,
        "free_text": "   Total cross-section."
      },
      "2": {
        "x4_code": "(95-AM-241(N,G)95-AM-242,,SIG)",
        "children": [
          {
            "code": [
              "95-AM-241",
              [
                "N,G"
              ],
              "95-AM-242,,SIG"
            ],
            "type": null,
            "target": "95-AM-241",
            "process": "N,G",
            "sf49": "95-AM-242,,SIG",
            "sf4": "95-AM-242",
            "sf5": null,
            "sf6": "SIG",
            "sf7": null,
            "sf8": null,
            "sf9": null
          }
        ],
        "type": null,
        "free_text": " Capture cross section."
      }
    },
    "007": {
      "0": {
        "x4_code": "(95-AM-241(N,TOT),,RI)",
        "children": [
          {
            "code": [
              "95-AM-241",
              [
                "N,TOT"
              ],
              ",,RI"
            ],
            "type": null,
            "target": "95-AM-241",
            "process": "N,TOT",
            "sf49": ",,RI",
            "sf4": null,
            "sf5": null,
            "sf6": "RI",
            "sf7": null,
            "sf8": null,
            "sf9": null
          }
        ],
        "type": null,
        "free_text": " Total resonance integral."
      }
    },
    "008": {
      "0": {
        "x4_code": "(95-AM-241(N,EL),,STF)",
        "children": [
          {
            "code": [
              "95-AM-241",
              [
                "N,EL"
              ],
              ",,STF"
            ],
            "type": null,
            "target": "95-AM-241",
            "process": "N,EL",
            "sf49": ",,STF",
            "sf4": null,
            "sf5": null,
            "sf6": "STF",
            "sf7": null,
            "sf8": null,
            "sf9": null
          }
        ],
        "type": null,
        "free_text": " Strength function S0 ."
      }
    },
    "009": {
      "0": {
        "x4_code": "(95-AM-241(N,0),,D)",
        "children": [
          {
            "code": [
              "95-AM-241",
              [
                "N,0"
              ],
              ",,D"
            ],
            "type": null,
            "target": "95-AM-241",
            "process": "N,0",
            "sf49": ",,D",
            "sf4": null,
            "sf5": null,
            "sf6": "D",
            "sf7": null,
            "sf8": null,
            "sf9": null
          }
        ],
        "type": null,
        "free_text": " Average level-spacing ."
      }
    },
    "010": {
      "0": {
        "x4_code": "(95-AM-241(N,EL),,WID/RED,,2G)",
        "children": [
          {
            "code": [
              "95-AM-241",
              [
                "N,EL"
              ],
              ",,WID/RED,,2G"
            ],
            "type": null,
            "target": "95-AM-241",
            "process": "N,EL",
            "sf49": ",,WID/RED,,2G",
            "sf4": null,
            "sf5": null,
            "sf6": "WID/RED",
            "sf7": null,
            "sf8": "2G",
            "sf9": null
          }
        ],
        "type": null,
        "free_text": " Average reduced neutron                               wide."
      }
    }
  },
  "data_tables": {
    "001": {
      "common": null
    },
    "002": {
      "common": null,
      "data": {
        "heads": [
          "DATA      1",
          "DATA-ERR  1",
          "DATA      2",
          "DATA-ERR  2",
          "DATA      3",
          "DATA-ERR  3"
        ],
        "units": [
          "EV",
          "EV",
          "MILLI-EV",
          "MILLI-EV",
          "MILLI-EV",
          "MILLI-EV"
        ],
        "data": [
          [
            -0.425,
            0.306,
            0.573,
            1.268,
            1.916,
            2.538,
            2.581,
            3.956,
            4.947,
            5.39,
            6.1,
            6.65,
            7.53,
            8.17,
            9.11,
            9.84,
            10.11,
            10.39,
            10.99,
            11.58,
            12.06,
            12.86,
            13.8,
            14.32,
            14.66,
            15.66,
            16.35,
            16.81,
            17.69,
            18.09,
            19.39,
            20.28,
            20.84,
            21.72,
            22.74,
            23.08,
            23.33,
            24.17,
            25.05,
            25.6,
            26.5,
            26.67,
            27.52,
            27.65,
            28.31,
            28.82,
            29.43,
            29.87,
            30.82
          ],
          [
            null,
            0.002,
            0.004,
            0.0043,
            0.005,
            0.008,
            0.009,
            0.017,
            0.024,
            0.03,
            0.04,
            0.04,
            0.05,
            0.02,
            0.02,
            0.03,
            0.03,
            0.03,
            0.04,
            0.05,
            0.06,
            0.06,
            0.06,
            0.06,
            0.07,
            0.07,
            0.07,
            0.07,
            0.07,
            null,
            0.07,
            0.07,
            0.08,
            0.08,
            0.09,
            0.09,
            0.09,
            0.09,
            0.1,
            0.1,
            0.1,
            0.1,
            0.1,
            0.1,
            0.11,
            0.12,
            0.12,
            0.12,
            0.13
          ],
          [
            null,
            45.0,
            43.0,
            41.0,
            46.0,
            41.0,
            38.0,
            28.0,
            31.0,
            38.0,
            42.0,
            null,
            null,
            42.0,
            48.0,
            48.0,
            null,
            45.0,
            52.0,
            null,
            null,
            44.0,
            null,
            null,
            44.0,
            32.0,
            44.0,
            31.0,
            40.0,
            null,
            37.0,
            null,
            null,
            null,
            null,
            null,
            null,
            null,
            null,
            null,
            null,
            null,
            null,
            null,
            null,
            null,
            null,
            null,
            null
          ],
          [
            null,
            1.0,
            1.0,
            2.0,
            2.0,
            2.0,
            2.0,
            3.0,
            5.0,
            7.0,
            14.0,
            null,
            null,
            5.0,
            3.0,
            3.0,
            null,
            4.0,
            4.0,
            null,
            null,
            5.0,
            null,
            null,
            5.0,
            12.0,
            5.0,
            8.0,
            10.0,
            null,
            12.0,
            null,
            null,
            null,
            null,
            null,
            null,
            null,
            null,
            null,
            null,
            null,
            null,
            null,
            null,
            null,
            null,
            null,
            null
          ],
          [
            1.0,
            0.0556,
            0.0928,
            0.33,
            0.107,
            0.07,
            0.15,
            0.23,
            0.176,
            0.844,
            0.116,
            0.05,
            0.07,
            0.096,
            0.358,
            0.37,
            0.025,
            0.294,
            0.382,
            0.018,
            0.007,
            0.116,
            0.011,
            0.066,
            2.3,
            0.215,
            1.185,
            0.575,
            0.373,
            null,
            0.182,
            0.05,
            0.064,
            0.067,
            0.07,
            0.39,
            0.4,
            1.27,
            null,
            1.21,
            0.6,
            0.2,
            0.17,
            0.6,
            0.45,
            0.4,
            0.68,
            0.05,
            0.2
          ],
          [
            null,
            0.0004,
            0.0016,
            0.016,
            0.002,
            0.001,
            0.004,
            0.008,
            0.005,
            0.114,
            0.005,
            0.03,
            0.04,
            0.004,
            0.006,
            0.007,
            0.004,
            0.007,
            0.008,
            0.003,
            0.003,
            0.009,
            0.001,
            0.012,
            0.13,
            0.012,
            0.033,
            0.02,
            0.016,
            null,
            0.016,
            0.01,
            0.011,
            0.012,
            0.012,
            0.05,
            0.05,
            0.08,
            null,
            0.08,
            null,
            null,
            null,
            null,
            null,
            null,
            null,
            null,
            null
          ]
        ]
      }
    },
    "003": {
      "common": null,
      "data": {
        "heads": [
          "EN-RES",
          "EN-RES-ERR",
          "DATA",
          "DATA-ERR"
        ],
        "units": [
          "EV",
          "EV",
          "B",
          "B"
        ],
        "data": [
          [
            -0.425,
            0.306,
            0.573,
            1.268,
            1.916,
            2.358,
            2.581,
            3.956,
            4.947,
            5.39,
            6.1,
            6.65,
            7.53,
            8.17,
            9.11,
            9.84,
            10.11,
            10.39,
            10.99,
            11.58,
            12.06,
            12.86,
            14.32,
            14.66,
            15.66,
            16.35,
            16.81,
            17.69,
            19.39,
            20.28,
            20.84,
            21.72,
            22.74,
            23.08,
            23.33,
            24.17,
            25.6,
            26.5,
            26.67,
            27.52,
            27.65,
            28.31,
            28.82,
            29.43,
            29.87,
            30.82
          ],
          [
            null,
            0.002,
            0.004,
            0.0043,
            0.005,
            0.008,
            0.009,
            0.017,
            0.024,
            0.03,
            0.04,
            0.04,
            0.05,
            0.02,
            0.02,
            0.03,
            0.03,
            0.03,
            0.04,
            0.05,
            0.06,
            0.06,
            0.06,
            0.07,
            0.07,
            0.07,
            0.07,
            0.07,
            0.07,
            0.07,
            0.08,
            0.08,
            0.09,
            0.09,
            0.09,
            0.09,
            0.1,
            0.1,
            0.1,
            null,
            null,
            0.11,
            0.12,
            null,
            null,
            0.13
          ],
          [
            50000.0,
            5190.0,
            4920.0,
            8200.0,
            1560.0,
            950.0,
            1990.0,
            2670.0,
            1520.0,
            5310.0,
            590.0,
            260.0,
            320.0,
            360.0,
            1060.0,
            1030.0,
            80.0,
            820.0,
            880.0,
            50.0,
            20.0,
            260.0,
            150.0,
            4600.0,
            560.0,
            2100.0,
            1450.0,
            690.0,
            330.0,
            40.0,
            100.0,
            100.0,
            100.0,
            550.0,
            550.0,
            4100.0,
            3400.0,
            500.0,
            240.0,
            180.0,
            670.0,
            580.0,
            430.0,
            690.0,
            50.0,
            200.0
          ],
          [
            null,
            185.0,
            120.0,
            650.0,
            70.0,
            36.0,
            130.0,
            300.0,
            270.0,
            1700.0,
            180.0,
            140.0,
            180.0,
            40.0,
            70.0,
            70.0,
            40.0,
            70.0,
            70.0,
            20.0,
            10.0,
            70.0,
            50.0,
            800.0,
            200.0,
            300.0,
            340.0,
            160.0,
            200.0,
            20.0,
            40.0,
            40.0,
            40.0,
            200.0,
            200.0,
            2000.0,
            2000.0,
            null,
            null,
            null,
            null,
            null,
            null,
            null,
            null,
            null
          ]
        ]
      }
    },
    "004": {
      "common": null,
      "data": {
        "heads": [
          "EN",
          "DATA"
        ],
        "units": [
          "EV",
          "B"
        ],
        "data": [
          [
            398.95,
            396.57,
            394.2,
            391.86,
            389.54,
            387.24,
            384.96,
            382.69,
            380.45,
            378.23,
            376.03,
            373.85,
            371.68,
            369.54,
            367.41,
            365.3,
            363.21,
            361.14,
            359.08,
            357.05,
            355.03,
            353.02,
            351.04,
            349.07,
            347.11,
            345.18,
            343.26,
            341.35,
            339.46,
            337.59,
            335.75,
            333.89,
            332.06,
            330.25,
            328.46,
            326.67,
            324.9,
            323.15,
            321.41,
            319.69,
            317.97,
            316.28,
            314.59,
            312.92,
            311.26,
            309.62,
            307.99,
            306.37,
            304.76,
            303.17,
            301.59,
            300.02,
            298.46,
            296.92,
            295.38,
            293.86,
            292.35,
            290.86,
            289.37,
            287.9,
            286.43,
            284.98,
            283.54,
            282.11,
            280.69,
            279.28,
            277.88,
            276.5,
            275.12,
            273.75,
            272.39,
            271.05,
            269.71,
            268.38,
            267.07,
            265.76,
            264.46,
            263.17,
            261.89,
            260.62,
            259.36,
            258.11,
            256.87,
            255.63,
            254.41,
            253.19,
            251.99,
            250.79,
            249.6,
            248.42,
            247.24,
            246.08,
            244.92,
            243.77,
            242.63,
            241.5,
            240.38,
            239.26,
            238.15,
            237.05,
            235.96,
            234.87,
            233.79,
            232.72,
            231.66,
            230.6,
            229.55,
            228.51,
            227.47,
            226.44,
            225.42,
            224.41,
            223.4,
            222.4,
            221.41,
            220.42,
            219.44,
            218.45,
            217.5,
            216.54,
            215.58,
            214.63,
            213.69,
            212.75,
            211.82,
            210.9,
            209.96,
            209.07,
            208.16,
            207.26,
            206.37,
            205.48,
            204.6,
            203.72,
            202.85,
            201.98,
            201.12,
            200.27,
            199.42,
            198.57,
            197.73,
            196.9,
            196.07,
            195.25,
            194.43,
            193.62,
            192.81,
            192.01,
            191.21,
            190.42,
            189.63,
            188.85,
            188.07,
            187.3,
            186.53,
            185.76,
            185.01,
            184.25,
            183.5,
            182.76,
            182.02,
            181.28,
            180.55,
            179.82,
            179.1,
            178.38,
            177.66,
            176.96,
            176.25,
            175.55,
            174.85,
            174.16,
            173.47,
            172.78,
            172.1,
            171.43,
            170.76,
            170.08,
            169.42,
            168.76,
            168.1,
            167.45,
            166.8,
            166.15,
            165.51,
            164.87,
            164.24,
            163.6,
            162.98,
            162.35,
            161.73,
            161.12,
            160.5,
            159.89,
            159.29,
            158.68,
            158.08,
            157.49,
            156.9,
            156.31,
            155.72,
            155.14,
            154.56,
            153.98,
            153.41,
            152.84,
            152.27,
            151.71,
            151.15,
            150.59,
            150.04,
            149.49,
            148.94,
            148.39,
            147.85,
            147.31,
            146.78,
            146.24,
            145.71,
            145.19,
            144.66,
            144.14,
            143.62,
            143.1,
            142.59,
            142.08,
            141.57,
            141.07,
            140.56,
            140.06,
            139.57,
            139.07,
            138.58,
            138.09,
            137.6,
            137.12,
            136.64,
            136.16,
            135.68,
            135.21,
            134.74,
            134.27,
            133.8,
            133.34,
            132.88,
            132.42,
            131.95,
            131.51,
            131.05,
            130.6,
            130.16,
            129.71,
            129.27,
            128.83,
            128.39,
            127.95,
            127.52,
            127.08,
            126.88,
            126.23,
            125.8,
            125.38,
            124.96,
            124.54,
            124.12,
            123.71,
            123.29,
            122.88,
            122.48,
            122.07,
            121.66,
            121.26,
            120.86,
            120.46,
            120.07,
            119.67,
            119.28,
            118.88,
            118.5,
            118.11,
            117.73,
            117.34,
            116.96,
            116.58,
            116.21,
            115.83,
            115.46,
            115.08,
            114.71,
            114.34,
            113.98,
            113.61,
            113.25,
            112.89,
            112.53,
            112.17,
            111.81,
            111.46,
            111.11,
            110.75,
            110.4,
            110.06,
            109.71,
            109.37,
            109.02,
            108.68,
            108.34,
            108.0,
            107.67,
            107.38,
            107.0,
            106.67,
            106.33,
            106.01,
            105.68,
            105.35,
            105.03,
            104.71,
            104.38,
            104.06,
            103.75,
            103.43,
            103.11,
            102.8,
            102.49,
            102.17,
            101.86,
            101.56,
            101.25,
            100.94,
            100.64,
            100.34,
            100.03,
            99.739,
            99.44,
            99.143,
            98.846,
            98.552,
            98.258,
            97.968,
            97.675,
            97.385,
            97.097,
            96.81,
            96.524,
            96.24,
            95.955,
            95.674,
            95.393,
            95.114,
            94.836,
            94.559,
            94.283,
            94.008,
            93.734,
            93.462,
            93.191,
            92.921,
            92.652,
            92.385,
            92.118,
            91.853,
            91.589,
            91.326,
            91.064,
            90.803,
            90.544,
            90.285,
            90.028,
            89.771,
            89.516,
            89.262,
            89.009,
            88.757,
            88.506,
            88.256,
            88.008,
            87.76,
            87.513,
            87.268,
            87.023,
            86.779,
            86.537,
            86.295,
            86.055,
            85.815,
            85.577,
            85.339,
            85.102,
            84.867,
            84.632,
            84.399,
            84.166,
            83.934,
            83.704,
            83.474,
            83.248,
            83.017,
            82.79,
            82.564,
            82.339,
            82.115,
            81.891,
            81.669,
            81.447,
            81.227,
            81.007,
            80.788,
            80.57,
            80.353,
            80.137,
            79.922,
            79.708,
            79.494,
            79.281,
            79.07,
            78.859,
            78.648,
            78.439,
            78.231,
            78.023,
            77.816,
            77.61,
            77.406,
            77.201,
            76.997,
            76.794,
            76.592,
            76.391,
            76.191,
            75.991,
            75.792,
            75.594,
            75.397,
            75.201,
            75.005,
            74.81,
            74.616,
            74.422,
            74.23,
            74.038,
            73.847,
            73.656,
            73.465,
            73.277,
            73.089,
            72.902,
            72.715,
            72.529,
            72.343,
            72.159,
            71.975,
            71.791,
            71.609,
            71.427,
            71.246,
            71.065,
            70.886,
            70.706,
            70.528,
            70.35,
            70.173,
            69.997,
            69.821,
            69.646,
            69.471,
            69.298,
            69.125,
            68.952,
            68.78,
            68.609,
            68.438,
            68.268,
            68.099,
            67.931,
            67.762,
            67.596,
            67.428,
            67.262,
            67.096,
            66.932,
            66.767,
            66.603,
            66.44,
            66.278,
            66.116,
            65.954,
            65.794,
            65.633,
            65.474,
            65.315,
            65.153,
            64.999,
            64.841,
            64.685,
            64.528,
            64.373,
            64.218,
            64.063,
            63.909,
            63.756,
            63.606,
            63.451,
            63.291,
            63.148,
            62.999,
            62.847,
            62.698,
            62.549,
            62.4,
            62.252,
            62.106,
            61.958,
            61.812,
            61.666,
            61.521,
            61.376,
            61.231,
            61.088,
            60.944,
            60.801,
            60.659,
            60.517,
            60.376,
            60.235,
            60.095,
            59.955,
            59.816,
            59.677,
            59.538,
            59.4,
            59.263,
            59.126,
            58.99,
            58.854,
            58.718,
            58.583,
            58.448,
            58.314,
            58.181,
            58.047,
            57.915,
            57.782,
            57.651,
            57.519,
            57.388,
            57.258,
            57.128,
            56.998,
            56.869,
            56.74,
            56.612,
            56.484,
            56.356,
            56.229,
            56.103,
            55.977,
            55.851,
            55.726,
            55.601,
            55.476,
            55.352,
            55.229,
            55.106,
            54.985,
            54.86,
            54.738,
            54.617,
            54.496,
            54.375,
            54.254,
            54.135,
            54.015,
            53.896,
            53.777,
            53.659,
            53.541,
            53.423,
            53.306,
            53.189,
            53.072,
            52.956,
            52.841,
            52.725,
            52.61,
            52.496,
            52.382,
            52.268,
            52.154,
            52.041,
            51.929,
            51.816,
            51.704,
            51.593,
            51.482,
            51.371,
            51.26,
            51.15,
            51.04,
            50.931,
            50.822,
            50.713,
            50.604,
            50.495,
            50.389,
            50.281,
            50.174,
            50.067,
            49.961,
            49.855,
            49.749,
            49.644,
            49.539,
            49.434,
            49.33,
            49.226,
            49.122,
            49.019,
            48.916,
            48.813,
            48.711,
            48.609,
            48.507,
            48.406,
            48.304,
            48.204,
            48.103,
            48.003,
            47.903,
            47.804,
            47.704,
            47.605,
            47.507,
            47.409,
            47.311,
            47.213,
            47.115,
            47.018,
            46.922,
            46.825,
            46.729,
            46.633,
            46.537,
            46.442,
            46.347,
            46.252,
            46.158,
            46.064,
            45.97,
            45.876,
            45.783,
            45.69,
            45.597,
            45.505,
            45.413,
            45.321,
            45.229,
            45.138,
            45.047,
            44.956,
            44.865,
            44.775,
            44.685,
            44.596,
            44.506,
            44.417,
            44.328,
            44.24,
            44.151,
            44.063,
            43.975,
            43.888,
            43.8,
            43.716,
            43.627,
            43.54,
            43.454,
            43.368,
            43.282,
            43.197,
            43.111,
            43.026,
            42.942,
            42.857,
            42.773,
            42.689,
            42.605,
            42.522,
            42.438,
            42.355,
            42.273,
            42.19,
            42.108,
            42.026,
            41.944,
            41.862,
            41.781,
            41.7,
            41.619,
            41.538,
            41.458,
            41.378,
            41.298,
            41.218,
            41.139,
            41.06,
            40.981,
            40.902,
            40.823,
            40.746,
            40.667,
            40.589,
            40.511,
            40.434,
            40.357,
            40.28,
            40.203,
            40.126,
            40.05,
            39.974,
            39.898,
            39.822,
            39.747,
            39.672,
            39.597,
            39.522,
            39.447,
            39.373,
            39.299,
            39.225,
            39.151,
            39.077,
            39.004,
            38.931,
            38.858,
            38.785,
            38.713,
            38.64,
            38.568,
            38.496,
            38.425,
            38.353,
            38.282,
            38.211,
            38.14,
            38.069,
            37.999,
            37.928,
            37.858,
            37.788,
            37.718,
            37.649,
            37.579,
            37.51,
            37.441,
            37.372,
            37.304,
            37.235,
            37.167,
            37.099,
            37.031,
            36.964,
            36.896,
            36.829,
            36.762,
            36.696,
            36.628,
            36.561,
            36.496,
            36.429,
            36.363,
            36.297,
            36.231,
            36.166,
            36.101,
            36.036,
            35.97,
            35.906,
            35.841,
            35.777,
            35.712,
            35.648,
            35.584,
            35.521,
            35.457,
            35.394,
            35.33,
            35.267,
            35.204,
            35.142,
            35.079,
            35.017,
            34.956,
            34.893,
            34.831,
            34.769,
            34.707,
            34.646,
            34.585,
            34.524,
            34.463,
            34.402,
            34.341,
            34.281,
            34.221,
            34.161,
            34.101,
            34.041,
            33.981,
            33.922,
            33.862,
            33.803,
            33.744,
            33.685,
            33.627,
            33.568,
            33.51,
            33.451,
            33.393,
            33.335,
            33.277,
            33.22,
            33.162,
            33.105,
            33.048,
            32.991,
            32.934,
            32.877,
            32.82,
            32.764,
            32.708,
            32.651,
            32.595,
            32.54,
            32.484,
            32.428,
            32.373,
            32.317,
            32.262,
            32.207,
            32.152,
            32.098,
            32.043,
            31.988,
            31.934,
            31.88,
            31.826,
            31.772,
            31.718,
            31.665,
            31.611,
            31.558,
            31.504,
            31.451,
            31.398,
            31.346,
            31.293,
            31.24,
            31.188,
            31.135,
            31.083,
            31.031,
            30.979,
            30.928,
            30.876,
            30.824,
            30.773,
            30.722,
            30.671,
            30.62,
            30.568,
            30.518,
            30.467,
            30.417,
            30.366,
            30.316,
            30.266,
            30.216,
            30.166,
            30.116,
            30.067,
            30.017,
            29.968,
            29.919,
            29.869,
            29.82,
            29.771,
            29.723,
            29.674,
            29.625,
            29.577,
            29.529,
            29.481,
            29.432,
            29.385,
            29.337,
            29.289,
            29.241,
            29.194,
            29.146,
            29.099,
            29.052,
            29.005,
            28.958,
            28.911,
            28.865,
            28.818,
            28.772,
            28.725,
            28.679,
            28.633,
            28.587,
            28.541,
            28.495,
            28.449,
            28.404,
            28.358,
            28.313,
            28.268,
            28.226,
            28.173,
            28.133,
            28.088,
            28.043,
            27.999,
            27.954,
            27.91,
            27.866,
            27.821,
            27.777,
            27.733,
            27.689,
            27.646,
            27.602,
            27.558,
            27.515,
            27.472,
            27.428,
            27.385,
            27.342,
            27.299,
            27.256,
            27.214,
            27.171,
            27.128,
            27.086,
            27.044,
            27.001,
            26.959,
            26.917,
            26.875,
            26.833,
            26.792,
            26.75,
            26.709,
            26.667,
            26.626,
            26.584,
            26.543,
            26.502,
            26.461,
            26.42,
            26.38,
            26.339,
            26.298,
            26.258,
            26.217,
            26.177,
            26.137,
            26.097,
            26.057,
            26.017,
            25.977,
            25.937,
            25.897,
            25.858,
            25.818,
            25.779,
            25.74,
            25.7,
            25.661,
            25.622,
            25.583,
            25.544,
            25.506,
            25.467,
            25.428,
            25.39,
            25.351,
            25.313,
            25.275,
            25.237,
            25.199,
            25.161,
            25.123,
            25.085,
            25.047,
            25.009,
            24.972,
            24.934,
            24.897,
            24.86,
            24.822,
            24.785,
            24.748,
            24.711,
            24.674,
            24.638,
            24.601,
            24.564,
            24.528,
            24.491,
            24.455,
            24.418,
            24.382,
            24.345,
            24.31,
            24.274,
            24.238,
            24.202,
            24.166,
            24.131,
            24.095,
            24.06,
            24.024,
            23.989,
            23.953,
            23.918,
            23.883,
            23.848,
            23.813,
            23.778,
            23.743,
            23.709,
            23.674,
            23.639,
            23.605,
            23.57,
            23.536,
            23.502,
            23.467,
            23.433,
            23.399,
            23.366,
            23.331,
            23.297,
            23.264,
            23.23,
            23.196,
            23.163,
            23.129,
            23.096,
            23.062,
            23.029,
            22.996,
            22.966,
            22.93,
            22.897,
            22.864,
            22.831,
            22.798,
            22.766,
            22.735,
            22.7,
            22.668,
            22.636,
            22.606,
            22.571,
            22.539,
            22.507,
            22.473,
            22.442,
            22.411,
            22.379,
            22.347,
            22.315,
            22.283,
            22.252,
            22.22,
            22.189,
            22.158,
            22.126,
            22.095,
            22.064,
            22.033,
            22.002,
            21.971,
            21.94,
            21.909,
            21.876,
            21.847,
            21.817,
            21.786,
            21.755,
            21.725,
            21.694,
            21.664,
            21.634,
            21.604,
            21.576,
            21.543,
            21.513,
            21.483,
            21.455,
            21.424,
            21.394,
            21.364,
            21.334,
            21.305,
            21.275,
            21.246,
            21.218,
            21.187,
            21.158,
            21.128,
            21.099,
            21.07,
            21.041,
            21.012,
            20.983,
            20.954,
            20.926,
            20.897,
            20.868,
            20.839,
            20.811,
            20.782,
            20.754,
            20.725,
            20.697,
            20.669,
            20.641,
            20.612,
            20.584,
            20.556,
            20.528,
            20.5,
            20.472,
            20.445,
            20.417,
            20.389,
            20.361,
            20.334,
            20.306,
            20.279,
            20.251,
            20.224,
            20.197,
            20.169,
            20.142,
            20.115,
            20.088,
            20.061,
            20.034,
            20.007,
            19.98,
            19.953,
            19.927,
            19.9,
            19.873,
            19.847,
            19.82,
            19.793,
            19.767,
            19.741,
            19.714,
            19.688,
            19.662,
            19.636,
            19.609,
            19.583,
            19.557,
            19.531,
            19.505,
            19.479,
            19.454,
            19.428,
            19.402,
            19.376,
            19.351,
            19.325,
            19.3,
            19.274,
            19.249,
            19.224,
            19.198,
            19.173,
            19.148,
            19.123,
            19.097,
            19.072,
            19.047,
            19.022,
            18.997,
            18.973,
            18.948,
            18.923,
            18.898,
            18.874,
            18.849,
            18.824,
            18.8,
            18.775,
            18.751,
            18.726,
            18.702,
            18.678,
            18.654,
            18.629,
            18.605,
            18.581,
            18.557,
            18.533,
            18.509,
            18.485,
            18.461,
            18.437,
            18.414,
            18.39,
            18.366,
            18.343,
            18.319,
            18.295,
            18.272,
            18.248,
            18.225,
            18.202,
            18.178,
            18.155,
            18.132,
            18.109,
            18.085,
            18.062,
            18.039,
            18.016,
            17.993,
            17.97,
            17.947,
            17.925,
            17.902,
            17.879,
            17.856,
            17.834,
            17.811,
            17.789,
            17.766,
            17.743,
            17.721,
            17.69,
            17.676,
            17.654,
            17.632,
            17.609,
            17.587,
            17.565,
            17.543,
            17.521,
            17.499,
            17.477,
            17.455,
            17.436,
            17.411,
            17.389,
            17.367,
            17.346,
            17.324,
            17.302,
            17.281,
            17.259,
            17.238,
            17.216,
            17.195,
            17.173,
            17.152,
            17.131,
            17.109,
            17.086,
            17.067,
            17.046,
            17.024,
            17.006,
            16.982,
            16.961,
            16.94,
            16.919,
            16.898,
            16.878,
            16.857,
            16.836,
            16.815,
            16.794,
            16.774,
            16.753,
            16.733,
            16.712,
            16.691,
            16.671,
            16.65,
            16.63,
            16.61,
            16.589,
            16.569,
            16.549,
            16.529,
            16.508,
            16.488,
            16.468,
            16.448,
            16.428,
            16.408,
            16.388,
            16.368,
            16.348,
            16.328,
            16.309,
            16.289,
            16.269,
            16.249,
            16.23,
            16.21,
            16.19,
            16.171,
            16.151,
            16.132,
            16.112,
            16.093,
            16.073,
            16.054,
            16.035,
            16.015,
            15.996,
            15.977,
            15.958,
            15.939,
            15.92,
            15.9,
            15.881,
            15.862,
            15.846,
            15.824,
            15.806,
            15.787,
            15.768,
            15.749,
            15.73,
            15.711,
            15.693,
            15.674,
            15.655,
            15.637,
            15.618,
            15.6,
            15.581,
            15.563,
            15.544,
            15.526,
            15.508,
            15.489,
            15.471,
            15.453,
            15.434,
            15.416,
            15.398,
            15.38,
            15.362,
            15.344,
            15.325,
            15.307,
            15.289,
            15.272,
            15.254,
            15.236,
            15.218,
            15.2,
            15.182,
            15.164,
            15.147,
            15.129,
            15.111,
            15.094,
            15.076,
            15.058,
            15.041,
            15.025,
            15.006,
            14.988,
            14.971,
            14.954,
            14.936,
            14.919,
            14.902,
            14.884,
            14.867,
            14.85,
            14.833,
            14.813,
            14.798,
            14.781,
            14.764,
            14.747,
            14.73,
            14.713,
            14.696,
            14.679,
            14.662,
            14.645,
            14.629,
            14.612,
            14.595,
            14.578,
            14.561,
            14.545,
            14.528,
            14.511,
            14.495,
            14.478,
            14.462,
            14.445,
            14.429,
            14.412,
            14.395,
            14.379,
            14.363,
            14.347,
            14.33,
            14.314,
            14.298,
            14.282,
            14.265,
            14.249,
            14.233,
            14.217,
            14.201,
            14.185,
            14.169,
            14.153,
            14.137,
            14.121,
            14.105,
            14.089,
            14.073,
            14.057,
            14.041,
            14.025,
            14.01,
            13.994,
            13.978,
            13.962,
            13.947,
            13.931,
            13.915,
            13.9,
            13.884,
            13.869,
            13.853,
            13.838,
            13.822,
            13.807,
            13.791,
            13.776,
            13.761,
            13.745,
            13.73,
            13.715,
            13.699,
            13.684,
            13.669,
            13.654,
            13.639,
            13.624,
            13.608,
            13.593,
            13.578,
            13.563,
            13.548,
            13.533,
            13.518,
            13.503,
            13.488,
            13.474,
            13.459,
            13.444,
            13.429,
            13.414,
            13.4,
            13.385,
            13.37,
            13.355,
            13.341,
            13.326,
            13.311,
            13.297,
            13.282,
            13.268,
            13.253,
            13.239,
            13.224,
            13.21,
            13.195,
            13.181,
            13.167,
            13.152,
            13.138,
            13.124,
            13.109,
            13.093,
            13.081,
            13.067,
            13.052,
            13.038,
            13.024,
            13.01,
            12.996,
            12.982,
            12.968,
            12.954,
            12.94,
            12.926,
            12.912,
            12.898,
            12.884,
            12.87,
            12.856,
            12.842,
            12.828,
            12.815,
            12.801,
            12.787,
            12.773,
            12.76,
            12.746,
            12.732,
            12.719,
            12.705,
            12.691,
            12.678,
            12.664,
            12.651,
            12.637,
            12.624,
            12.61,
            12.597,
            12.583,
            12.57,
            12.557,
            12.543,
            12.53,
            12.516,
            12.503,
            12.49,
            12.477,
            12.463,
            12.45,
            12.437,
            12.424,
            12.411,
            12.397,
            12.384,
            12.371,
            12.358,
            12.346,
            12.332,
            12.319,
            12.306,
            12.295,
            12.28,
            12.267,
            12.254,
            12.241,
            12.229,
            12.216,
            12.203,
            12.19,
            12.177,
            12.165,
            12.152,
            12.139,
            12.126,
            12.114,
            12.101,
            12.088,
            12.076,
            12.063,
            12.051,
            12.038,
            12.025,
            12.013,
            12.0,
            11.988,
            11.975,
            11.963,
            11.951,
            11.938,
            11.926,
            11.913,
            11.901,
            11.889,
            11.876,
            11.864,
            11.852,
            11.839,
            11.827,
            11.815,
            11.803,
            11.791,
            11.778,
            11.766,
            11.754,
            11.742,
            11.73,
            11.718,
            11.705,
            11.694,
            11.682,
            11.67,
            11.658,
            11.646,
            11.634,
            11.622,
            11.61,
            11.598,
            11.586,
            11.575,
            11.563,
            11.551,
            11.539,
            11.527,
            11.518,
            11.504,
            11.492,
            11.48,
            11.469,
            11.457,
            11.445,
            11.434,
            11.422,
            11.41,
            11.399,
            11.387,
            11.376,
            11.364,
            11.353,
            11.341,
            11.33,
            11.318,
            11.307,
            11.295,
            11.284,
            11.273,
            11.261,
            11.25,
            11.239,
            11.227,
            11.216,
            11.205,
            11.193,
            11.182,
            11.171,
            11.16,
            11.149,
            11.137,
            11.126,
            11.115,
            11.104,
            11.093,
            11.082,
            11.071,
            11.059,
            11.048,
            11.037,
            11.026,
            11.015,
            11.004,
            10.993,
            10.982,
            10.972,
            10.961,
            10.95,
            10.939,
            10.928,
            10.917,
            10.906,
            10.896,
            10.885,
            10.874,
            10.863,
            10.852,
            10.842,
            10.831,
            10.82,
            10.809,
            10.799,
            10.788,
            10.777,
            10.767,
            10.756,
            10.746,
            10.735,
            10.724,
            10.714,
            10.703,
            10.693,
            10.682,
            10.672,
            10.661,
            10.651,
            10.64,
            10.63,
            10.62,
            10.609,
            10.599,
            10.586,
            10.578,
            10.568,
            10.557,
            10.547,
            10.537,
            10.527,
            10.516,
            10.506,
            10.496,
            10.486,
            10.475,
            10.465,
            10.455,
            10.445,
            10.433,
            10.425,
            10.414,
            10.404,
            10.394,
            10.384,
            10.374,
            10.364,
            10.354,
            10.344,
            10.334,
            10.324,
            10.314,
            10.304,
            10.294,
            10.284,
            10.274,
            10.265,
            10.255,
            10.245,
            10.235,
            10.225,
            10.215,
            10.205,
            10.196,
            10.186,
            10.176,
            10.166,
            10.157,
            10.147,
            10.137,
            10.127,
            10.118,
            10.108,
            10.098,
            10.089,
            10.079,
            10.07,
            10.06,
            10.05,
            10.041,
            10.031,
            10.022,
            10.012,
            10.003,
            9.9936,
            9.9841,
            9.9746,
            9.9652,
            9.9557,
            9.9463,
            9.9368,
            9.9274,
            9.918,
            9.9086,
            9.8993,
            9.8899,
            9.8806,
            9.8712,
            9.8619,
            9.8526,
            9.8433,
            9.834,
            9.8248,
            9.8155,
            9.8063,
            9.797,
            9.7878,
            9.7786,
            9.7694,
            9.7605,
            9.7511,
            9.742,
            9.7328,
            9.7237,
            9.7146,
            9.7056,
            9.6964,
            9.6876,
            9.6783,
            9.6692,
            9.6602,
            9.6512,
            9.6422,
            9.6332,
            9.6242,
            9.6152,
            9.6062,
            9.5973,
            9.5884,
            9.5794,
            9.5705,
            9.5616,
            9.5527,
            9.5439,
            9.535,
            9.5262,
            9.5173,
            9.5085,
            9.4997,
            9.4909,
            9.4821,
            9.4733,
            9.4646,
            9.4558,
            9.4471,
            9.4384,
            9.4297,
            9.421,
            9.4123,
            9.4036,
            9.3949,
            9.3863,
            9.3776,
            9.369,
            9.3604,
            9.3518,
            9.3432,
            9.3346,
            9.326,
            9.3175,
            9.3089,
            9.3004,
            9.2919,
            9.2834,
            9.2749,
            9.2664,
            9.2579,
            9.2494,
            9.241,
            9.2325,
            9.2241,
            9.2157,
            9.2073,
            9.1989,
            9.1905,
            9.1821,
            9.1738,
            9.1654,
            9.1571,
            9.1488,
            9.1404,
            9.1321,
            9.1238,
            9.1156,
            9.1073,
            9.099,
            9.0908,
            9.0826,
            9.0743,
            9.0661,
            9.0579,
            9.0497,
            9.0415,
            9.0334,
            9.0252,
            9.0171,
            9.0089,
            9.0008,
            8.9927,
            8.9846,
            8.9765,
            8.9684,
            8.9603,
            8.9523,
            8.9442,
            8.9362,
            8.9282,
            8.9202,
            8.9121,
            8.9042,
            8.8962,
            8.8882,
            8.8802,
            8.8723,
            8.8646,
            8.8564,
            8.8485,
            8.8406,
            8.8327,
            8.8248,
            8.8169,
            8.8096,
            8.8012,
            8.7933,
            8.7856,
            8.7777,
            8.7699,
            8.7621,
            8.7543,
            8.7465,
            8.7387,
            8.731,
            8.7232,
            8.7155,
            8.7077,
            8.7,
            8.6923,
            8.6846,
            8.6769,
            8.6692,
            8.6616,
            8.6539,
            8.6462,
            8.6386,
            8.631,
            8.6234,
            8.6157,
            8.6081,
            8.6006,
            8.593,
            8.5854,
            8.5778,
            8.5703,
            8.5628,
            8.5552,
            8.5477,
            8.5402,
            8.5327,
            8.5252,
            8.5177,
            8.5103,
            8.5028,
            8.4954,
            8.4879,
            8.4805,
            8.4731,
            8.4656,
            8.4582,
            8.4509,
            8.4435,
            8.4361,
            8.4287,
            8.4214,
            8.414,
            8.4067,
            8.3994,
            8.3921,
            8.3848,
            8.3775,
            8.3702,
            8.3629,
            8.3556,
            8.3484,
            8.3411,
            8.3339,
            8.3267,
            8.3194,
            8.3122,
            8.305,
            8.2978,
            8.2906,
            8.2835,
            8.2763,
            8.2692,
            8.262,
            8.2549,
            8.2477,
            8.2406,
            8.2335,
            8.2264,
            8.2193,
            8.2123,
            8.2052,
            8.1981,
            8.1911,
            8.184,
            8.177,
            8.17,
            8.1629,
            8.1559,
            8.1489,
            8.1419,
            8.135,
            8.128,
            8.121,
            8.1141,
            8.1071,
            8.1002,
            8.0933,
            8.0863,
            8.0794,
            8.0725,
            8.0656,
            8.0588,
            8.0519,
            8.045,
            8.0382,
            8.0313,
            8.0245,
            8.0176,
            8.0108,
            8.004,
            7.9972
          ],
          [
            39.404,
            36.91,
            40.637,
            39.394,
            47.013,
            45.681,
            38.018,
            38.312,
            41.271,
            37.789,
            41.476,
            31.932,
            41.696,
            41.197,
            43.739,
            49.273,
            43.399,
            52.702,
            55.582,
            51.619,
            53.424,
            45.334,
            45.787,
            50.599,
            43.548,
            52.675,
            47.32,
            51.0,
            53.949,
            46.367,
            44.359,
            39.938,
            38.633,
            37.479,
            35.432,
            42.307,
            38.224,
            40.864,
            38.082,
            41.126,
            39.236,
            40.336,
            42.004,
            39.159,
            40.278,
            37.622,
            38.71,
            38.444,
            40.501,
            45.806,
            50.384,
            49.662,
            50.312,
            46.291,
            49.716,
            69.419,
            52.096,
            50.223,
            49.585,
            49.993,
            51.754,
            53.91,
            49.932,
            47.528,
            50.352,
            43.763,
            44.059,
            44.71,
            43.868,
            42.06,
            43.837,
            42.466,
            43.763,
            42.598,
            42.478,
            38.611,
            39.201,
            37.944,
            41.518,
            40.959,
            43.295,
            43.276,
            37.394,
            38.247,
            44.68,
            43.048,
            38.569,
            39.516,
            39.003,
            37.481,
            37.652,
            37.827,
            34.98,
            35.142,
            40.603,
            35.888,
            34.708,
            37.021,
            34.217,
            37.73,
            35.436,
            37.685,
            34.614,
            36.427,
            35.779,
            38.737,
            38.255,
            34.55,
            42.413,
            42.215,
            41.937,
            43.934,
            40.185,
            39.235,
            42.851,
            38.288,
            38.082,
            36.2,
            42.111,
            42.24,
            47.349,
            49.186,
            49.032,
            51.702,
            60.931,
            51.935,
            48.744,
            49.877,
            53.974,
            50.253,
            50.482,
            50.116,
            49.061,
            46.823,
            45.492,
            42.767,
            44.092,
            44.382,
            41.844,
            39.611,
            42.553,
            40.623,
            39.325,
            41.471,
            44.436,
            52.816,
            45.576,
            49.333,
            43.778,
            43.751,
            44.148,
            38.475,
            41.535,
            47.406,
            45.027,
            48.809,
            54.419,
            53.817,
            55.411,
            53.661,
            50.528,
            54.215,
            50.157,
            39.997,
            41.576,
            39.221,
            41.34,
            37.304,
            36.346,
            38.443,
            32.718,
            39.433,
            28.975,
            35.335,
            29.905,
            34.832,
            24.86,
            27.603,
            34.298,
            33.331,
            36.1,
            41.307,
            48.72,
            53.655,
            62.255,
            64.367,
            70.249,
            67.097,
            75.218,
            57.408,
            59.01,
            54.821,
            51.469,
            48.011,
            50.498,
            50.323,
            49.418,
            52.489,
            49.101,
            49.064,
            47.29,
            47.958,
            45.86,
            42.434,
            38.573,
            38.418,
            37.831,
            31.612,
            38.533,
            37.368,
            46.037,
            53.907,
            66.896,
            69.528,
            75.546,
            71.371,
            61.914,
            57.536,
            49.985,
            39.54,
            36.858,
            34.858,
            33.755,
            42.992,
            45.173,
            51.097,
            61.513,
            65.464,
            70.152,
            65.68,
            67.327,
            68.072,
            69.778,
            64.022,
            74.108,
            75.615,
            90.511,
            95.235,
            97.015,
            99.004,
            97.274,
            79.545,
            80.217,
            70.714,
            64.437,
            65.91,
            53.196,
            51.863,
            50.943,
            46.54,
            41.597,
            37.748,
            35.567,
            32.53,
            33.834,
            34.049,
            39.473,
            40.255,
            43.757,
            45.926,
            45.932,
            48.884,
            48.987,
            48.393,
            61.24,
            62.956,
            73.781,
            75.252,
            80.684,
            77.55,
            78.649,
            70.458,
            63.773,
            57.698,
            49.154,
            36.5,
            38.16,
            40.404,
            32.185,
            27.716,
            30.378,
            33.893,
            41.842,
            48.888,
            49.128,
            55.109,
            51.326,
            51.049,
            52.678,
            55.193,
            44.4,
            40.603,
            48.561,
            51.477,
            60.262,
            58.158,
            62.317,
            68.96,
            78.557,
            77.116,
            86.284,
            78.633,
            69.151,
            68.745,
            63.974,
            60.559,
            55.031,
            46.826,
            51.795,
            69.227,
            81.572,
            96.544,
            94.41,
            99.403,
            92.68,
            89.184,
            79.436,
            67.711,
            65.035,
            68.277,
            70.841,
            82.875,
            76.074,
            79.196,
            76.616,
            80.065,
            70.354,
            55.533,
            53.009,
            50.005,
            48.257,
            44.58,
            39.278,
            34.763,
            29.942,
            26.961,
            31.319,
            25.756,
            22.881,
            34.417,
            34.464,
            46.892,
            57.23,
            71.898,
            83.108,
            96.151,
            102.92,
            102.77,
            99.146,
            80.644,
            71.308,
            62.72,
            70.68,
            73.545,
            73.632,
            71.86,
            71.077,
            74.07,
            68.213,
            53.738,
            35.666,
            26.64,
            23.151,
            21.787,
            19.056,
            24.37,
            27.507,
            23.716,
            20.125,
            28.376,
            28.512,
            61.877,
            45.72,
            59.828,
            70.932,
            72.823,
            109.15,
            64.729,
            61.172,
            58.351,
            52.031,
            40.967,
            32.796,
            30.914,
            26.727,
            30.495,
            29.79,
            39.779,
            46.268,
            51.997,
            57.08,
            65.834,
            63.493,
            65.484,
            62.039,
            56.833,
            49.679,
            46.904,
            45.369,
            54.862,
            53.49,
            55.11,
            58.206,
            57.264,
            57.317,
            51.735,
            50.957,
            44.924,
            50.888,
            48.869,
            48.893,
            50.024,
            48.436,
            49.116,
            51.43,
            50.453,
            53.171,
            57.131,
            68.291,
            68.453,
            63.936,
            39.657,
            52.782,
            38.642,
            27.64,
            25.627,
            24.748,
            27.706,
            34.65,
            39.704,
            40.295,
            41.21,
            42.604,
            49.129,
            46.51,
            42.466,
            40.078,
            37.353,
            29.301,
            31.506,
            27.365,
            27.598,
            20.013,
            25.756,
            19.539,
            23.128,
            25.561,
            31.49,
            34.528,
            39.359,
            51.174,
            65.059,
            71.772,
            75.282,
            66.912,
            75.432,
            63.516,
            58.094,
            51.704,
            51.312,
            41.392,
            71.032,
            88.376,
            90.792,
            94.418,
            94.547,
            88.408,
            74.94,
            58.91,
            47.688,
            41.185,
            33.949,
            29.15,
            34.664,
            30.833,
            32.496,
            28.453,
            35.751,
            38.234,
            35.747,
            56.381,
            68.463,
            76.257,
            78.57,
            78.226,
            83.392,
            87.824,
            102.46,
            125.68,
            138.61,
            153.59,
            166.83,
            175.69,
            168.71,
            176.62,
            172.26,
            169.81,
            164.91,
            153.77,
            143.56,
            123.36,
            98.456,
            72.155,
            54.251,
            35.854,
            32.098,
            33.512,
            31.906,
            30.745,
            25.77,
            28.068,
            29.194,
            35.295,
            48.861,
            58.073,
            66.702,
            69.52,
            77.008,
            71.694,
            68.277,
            59.965,
            43.364,
            38.112,
            33.042,
            33.089,
            34.248,
            30.246,
            30.264,
            29.301,
            29.32,
            36.411,
            34.991,
            33.176,
            36.573,
            35.112,
            37.589,
            33.114,
            30.491,
            25.927,
            27.398,
            35.024,
            57.69,
            75.242,
            93.161,
            114.4,
            127.05,
            131.78,
            123.11,
            114.12,
            82.522,
            71.324,
            56.991,
            59.404,
            66.322,
            86.847,
            94.951,
            104.14,
            101.39,
            93.42,
            85.959,
            80.651,
            72.252,
            68.475,
            68.207,
            73.319,
            66.426,
            64.109,
            52.827,
            47.213,
            37.957,
            28.02,
            26.458,
            22.277,
            29.768,
            25.028,
            25.259,
            27.205,
            29.278,
            28.862,
            29.912,
            31.637,
            32.315,
            30.899,
            30.466,
            31.621,
            33.908,
            42.525,
            52.216,
            66.428,
            70.541,
            78.273,
            72.441,
            72.415,
            56.199,
            41.759,
            40.518,
            31.662,
            33.208,
            38.812,
            49.573,
            51.824,
            73.41,
            90.378,
            110.4,
            122.83,
            126.85,
            128.71,
            116.13,
            99.524,
            77.562,
            54.441,
            43.351,
            36.15,
            30.863,
            37.745,
            39.944,
            45.312,
            50.454,
            53.796,
            60.104,
            59.924,
            56.608,
            49.146,
            45.342,
            39.782,
            27.553,
            26.367,
            32.92,
            41.854,
            50.938,
            59.398,
            74.573,
            79.293,
            78.98,
            74.795,
            62.751,
            49.331,
            40.42,
            33.971,
            32.738,
            35.182,
            43.956,
            56.106,
            57.417,
            64.436,
            67.682,
            69.535,
            84.006,
            66.107,
            56.069,
            53.792,
            44.832,
            39.577,
            30.703,
            25.706,
            25.063,
            20.05,
            23.43,
            27.923,
            24.923,
            27.904,
            25.815,
            30.155,
            30.951,
            37.564,
            40.788,
            30.856,
            34.793,
            27.927,
            32.956,
            37.945,
            40.253,
            46.849,
            57.816,
            79.305,
            94.168,
            105.872,
            113.01,
            108.81,
            105.44,
            88.667,
            72.199,
            48.896,
            41.836,
            33.237,
            30.551,
            43.173,
            23.646,
            28.908,
            25.793,
            31.982,
            22.906,
            44.269,
            49.118,
            54.134,
            52.798,
            57.617,
            53.813,
            52.437,
            52.6,
            46.159,
            36.01,
            33.817,
            39.089,
            30.947,
            27.366,
            26.019,
            30.945,
            29.752,
            36.332,
            47.401,
            66.457,
            84.193,
            94.17,
            107.48,
            118.8,
            124.44,
            110.05,
            111.67,
            101.38,
            114.57,
            122.9,
            123.96,
            130.12,
            135.78,
            131.71,
            120.99,
            95.616,
            70.363,
            54.937,
            42.359,
            36.545,
            32.536,
            34.448,
            35.017,
            45.052,
            60.625,
            83.023,
            111.55,
            149.55,
            177.69,
            197.03,
            199.97,
            174.26,
            145.37,
            106.23,
            75.772,
            55.2,
            40.493,
            35.897,
            29.535,
            28.246,
            25.784,
            33.859,
            39.834,
            48.743,
            71.805,
            105.92,
            148.63,
            192.85,
            241.86,
            274.38,
            275.93,
            246.12,
            205.08,
            139.06,
            106.05,
            77.675,
            61.306,
            53.322,
            51.274,
            48.231,
            46.863,
            43.194,
            36.227,
            34.936,
            30.891,
            30.008,
            33.114,
            37.039,
            38.632,
            47.286,
            55.078,
            66.186,
            69.657,
            71.577,
            67.022,
            59.72,
            62.11,
            63.119,
            69.813,
            82.191,
            85.738,
            90.378,
            88.769,
            80.545,
            74.611,
            56.344,
            55.137,
            43.907,
            40.289,
            40.604,
            43.174,
            58.736,
            63.88,
            71.568,
            82.504,
            95.823,
            92.44,
            92.243,
            82.893,
            65.357,
            53.397,
            43.579,
            39.637,
            31.152,
            24.52,
            27.847,
            26.41,
            26.448,
            22.493,
            25.276,
            23.371,
            21.611,
            19.462,
            21.262,
            16.314,
            21.811,
            19.301,
            23.588,
            20.644,
            21.916,
            20.912,
            19.143,
            29.412,
            19.312,
            18.998,
            27.334,
            34.022,
            39.466,
            51.381,
            58.408,
            59.553,
            69.245,
            62.764,
            55.72,
            51.881,
            41.861,
            35.984,
            36.062,
            40.609,
            40.309,
            52.109,
            66.753,
            97.344,
            120.18,
            154.12,
            177.1,
            193.35,
            196.57,
            175.8,
            157.34,
            135.86,
            116.94,
            95.029,
            87.807,
            66.77,
            61.043,
            53.009,
            45.298,
            36.245,
            40.02,
            34.553,
            25.737,
            36.199,
            30.313,
            22.639,
            30.288,
            27.304,
            24.139,
            27.805,
            31.987,
            32.58,
            36.307,
            38.499,
            37.014,
            47.877,
            51.563,
            61.142,
            87.669,
            113.05,
            125.35,
            131.61,
            137.96,
            117.89,
            102.63,
            81.705,
            61.88,
            49.391,
            50.979,
            53.573,
            64.816,
            75.978,
            86.383,
            96.662,
            99.789,
            102.86,
            88.525,
            71.626,
            65.751,
            56.226,
            55.572,
            64.265,
            76.413,
            91.022,
            109.59,
            118.86,
            120.92,
            117.82,
            102.87,
            88.776,
            67.121,
            53.468,
            41.033,
            38.852,
            42.174,
            51.085,
            56.538,
            70.664,
            87.285,
            98.099,
            110.1,
            114.34,
            113.64,
            90.779,
            78.647,
            72.572,
            42.981,
            38.613,
            35.27,
            30.046,
            31.251,
            25.906,
            24.574,
            29.188,
            23.02,
            21.541,
            28.91,
            24.9,
            32.677,
            34.556,
            43.615,
            52.355,
            71.232,
            82.24,
            102.01,
            123.59,
            140.18,
            147.47,
            160.31,
            151.56,
            131.08,
            116.42,
            95.781,
            73.477,
            53.285,
            44.212,
            33.677,
            33.973,
            31.959,
            30.646,
            31.134,
            30.055,
            39.711,
            50.92,
            67.9,
            94.75,
            119.39,
            162.6,
            205.31,
            248.31,
            272.1,
            264.89,
            241.92,
            201.69,
            153.13,
            108.66,
            88.07,
            61.951,
            45.285,
            39.36,
            35.995,
            30.695,
            54.196,
            33.611,
            33.32,
            25.381,
            33.69,
            29.681,
            29.524,
            26.127,
            26.207,
            26.321,
            29.073,
            26.701,
            27.381,
            26.376,
            32.273,
            28.588,
            29.512,
            35.971,
            34.657,
            52.061,
            65.358,
            86.937,
            117.95,
            160.04,
            210.75,
            258.37,
            286.52,
            340.78,
            290.38,
            257.09,
            204.04,
            161.01,
            123.78,
            81.265,
            64.573,
            46.469,
            40.159,
            36.19,
            36.639,
            29.774,
            26.704,
            30.35,
            28.67,
            36.566,
            41.851,
            48.911,
            53.261,
            70.89,
            90.655,
            110.54,
            130.62,
            153.32,
            157.22,
            158.3,
            153.22,
            155.53,
            148.64,
            150.82,
            145.1,
            144.24,
            139.19,
            125.84,
            105.27,
            113.0,
            77.4,
            63.574,
            54.536,
            50.555,
            57.952,
            45.589,
            45.108,
            46.353,
            43.906,
            32.899,
            27.285,
            28.94,
            21.463,
            26.003,
            18.461,
            24.823,
            26.256,
            23.092,
            23.914,
            22.047,
            23.831,
            26.491,
            19.921,
            27.535,
            21.977,
            23.563,
            24.755,
            23.764,
            32.669,
            17.573,
            28.703,
            34.771,
            31.998,
            36.602,
            37.163,
            39.143,
            67.71,
            46.353,
            46.948,
            44.99,
            39.08,
            39.25,
            30.142,
            27.772,
            24.997,
            22.31,
            16.883,
            19.759,
            21.947,
            23.448,
            19.145,
            23.107,
            20.02,
            18.203,
            22.777,
            22.464,
            21.405,
            22.15,
            28.025,
            28.156,
            26.447,
            35.86,
            38.17,
            36.238,
            47.014,
            49.108,
            50.19,
            46.145,
            51.215,
            74.498,
            36.8,
            33.676,
            31.814,
            23.871,
            25.271,
            30.885,
            26.931,
            25.045,
            27.491,
            27.04,
            30.002,
            29.55,
            30.315,
            31.818,
            25.071,
            31.473,
            33.16,
            34.003,
            29.683,
            30.844,
            30.634,
            24.545,
            23.886,
            31.687,
            27.799,
            26.668,
            26.422,
            25.028,
            26.018,
            30.239,
            25.484,
            22.185,
            19.999,
            26.966,
            23.885,
            21.775,
            22.665,
            23.876,
            26.464,
            29.799,
            29.959,
            30.693,
            36.55,
            43.562,
            55.013,
            64.823,
            78.297,
            92.674,
            98.683,
            99.522,
            99.22,
            95.201,
            82.535,
            71.627,
            58.309,
            46.161,
            44.447,
            32.849,
            32.046,
            31.059,
            24.893,
            21.333,
            20.195,
            26.571,
            28.72,
            24.903,
            26.673,
            26.1,
            24.316,
            23.703,
            27.325,
            22.649,
            24.444,
            26.028,
            27.833,
            28.562,
            22.567,
            22.632,
            25.585,
            21.47,
            28.997,
            22.147,
            23.846,
            23.302,
            27.532,
            22.886,
            47.918,
            21.159,
            19.626,
            21.998,
            22.217,
            21.9,
            21.745,
            22.787,
            23.758,
            26.249,
            29.02,
            27.477,
            28.946,
            26.831,
            30.893,
            31.479,
            31.636,
            35.095,
            36.805,
            34.673,
            32.4,
            32.4,
            30.408,
            39.085,
            33.329,
            45.845,
            58.339,
            60.42,
            76.659,
            109.04,
            120.29,
            142.12,
            167.4,
            186.21,
            206.59,
            198.07,
            191.06,
            163.1,
            142.2,
            117.72,
            92.421,
            69.512,
            63.36,
            37.836,
            39.007,
            35.304,
            31.18,
            32.55,
            35.106,
            29.111,
            29.957,
            32.585,
            26.066,
            27.614,
            32.821,
            26.172,
            28.944,
            31.65,
            31.454,
            31.114,
            27.493,
            36.32,
            37.697,
            41.656,
            44.845,
            56.955,
            68.059,
            78.27,
            104.75,
            125.41,
            166.43,
            206.09,
            245.36,
            291.91,
            322.19,
            332.11,
            326.5,
            298.26,
            261.38,
            223.9,
            181.29,
            145.41,
            118.0,
            96.525,
            87.732,
            69.807,
            78.295,
            88.728,
            103.0,
            124.98,
            155.2,
            202.16,
            255.9,
            321.49,
            400.6,
            472.9,
            539.42,
            703.39,
            610.06,
            570.09,
            508.86,
            429.5,
            359.75,
            279.41,
            216.46,
            165.14,
            122.21,
            100.4,
            83.165,
            68.518,
            55.916,
            55.015,
            47.55,
            44.75,
            41.846,
            44.249,
            36.639,
            38.123,
            36.812,
            35.147,
            36.103,
            32.737,
            41.264,
            38.579,
            41.995,
            46.899,
            58.999,
            72.137,
            79.19,
            104.32,
            112.48,
            132.46,
            144.21,
            162.85,
            161.46,
            150.77,
            147.45,
            128.6,
            118.21,
            92.817,
            75.178,
            66.576,
            53.774,
            42.105,
            40.31,
            36.639,
            31.258,
            31.441,
            32.665,
            31.635,
            34.685,
            37.785,
            29.652,
            32.848,
            33.571,
            31.268,
            32.577,
            32.36,
            30.046,
            32.929,
            30.572,
            35.557,
            33.565,
            35.786,
            36.615,
            39.997,
            44.429,
            40.967,
            44.225,
            36.207,
            54.579,
            52.179,
            62.923,
            56.763,
            63.0,
            73.907,
            84.67,
            98.37,
            119.3,
            140.78,
            337.39,
            212.7,
            265.36,
            350.84,
            440.42,
            531.13,
            647.82,
            794.98,
            895.95,
            1029.4,
            1056.9,
            1062.0,
            1052.8,
            953.97,
            822.13,
            695.71,
            572.82,
            454.35,
            362.57,
            280.38,
            223.23,
            179.03,
            142.22,
            118.38,
            106.63,
            105.77,
            100.74,
            91.921,
            100.24,
            91.519,
            85.807,
            86.853,
            83.796,
            74.989,
            64.836,
            60.945,
            52.265,
            44.472,
            44.39,
            35.28,
            39.104,
            33.39,
            28.967,
            36.335,
            27.719,
            25.106,
            29.124,
            30.07,
            30.921,
            31.638,
            24.191,
            25.321,
            25.853,
            21.816,
            31.786,
            27.129,
            25.833,
            28.484,
            23.498,
            31.663,
            30.288,
            29.645,
            25.613,
            30.872,
            29.949,
            34.994,
            24.804,
            23.065,
            25.862,
            24.225,
            19.711,
            20.242,
            25.125,
            21.862,
            22.63,
            28.334,
            22.697,
            18.195,
            18.574,
            23.575,
            22.607,
            26.021,
            24.172,
            23.21,
            22.344,
            22.511,
            24.665,
            25.455,
            21.068,
            21.501,
            18.1,
            25.437,
            18.783,
            22.383,
            25.643,
            22.765,
            26.549,
            23.173,
            22.905,
            20.177,
            23.335,
            20.386,
            19.819,
            23.289,
            19.524,
            29.431,
            27.514,
            23.821,
            24.572,
            23.784,
            30.258,
            32.393,
            27.096,
            30.749,
            28.46,
            31.99,
            28.337,
            43.798,
            43.53,
            50.981,
            50.36,
            63.42,
            73.149,
            78.694,
            96.695,
            100.65,
            104.55,
            121.86,
            125.07,
            117.4,
            120.52,
            104.09,
            87.164,
            88.309,
            70.085,
            64.646,
            51.265,
            45.38,
            39.246,
            40.679,
            32.102,
            32.193,
            27.695,
            24.185,
            27.409,
            29.913,
            36.567,
            20.118,
            29.997,
            67.952,
            28.709,
            23.945,
            21.968,
            26.166,
            25.41,
            24.14,
            26.223,
            26.165,
            24.938,
            20.123,
            15.434,
            18.429,
            22.623,
            22.866,
            20.371,
            20.773,
            23.476,
            28.874,
            22.577,
            21.522,
            24.444,
            27.448,
            32.236,
            31.512,
            24.828,
            25.449,
            25.609,
            24.026,
            21.957,
            25.595,
            23.338,
            30.291,
            29.194,
            33.621,
            32.487,
            23.021,
            37.625,
            26.707,
            23.325,
            29.247,
            26.714,
            27.894,
            28.498,
            35.846,
            29.865,
            24.568,
            27.157,
            25.458,
            27.863,
            21.128,
            25.712,
            26.977,
            24.128,
            25.582,
            24.885,
            20.186,
            25.948,
            30.306,
            22.284,
            17.786,
            24.556,
            19.397,
            22.661,
            24.75,
            25.356,
            29.743,
            28.695,
            29.529,
            26.311,
            27.433,
            28.536,
            28.595,
            31.037,
            35.024,
            37.756,
            29.06,
            44.54,
            43.4,
            46.819,
            36.484,
            36.708,
            35.574,
            39.273,
            37.038,
            32.386,
            35.437,
            36.634,
            28.046,
            22.91,
            22.243,
            33.395,
            32.588,
            30.996,
            29.802,
            24.149,
            23.127,
            26.344,
            23.998,
            33.731,
            26.519,
            37.54,
            32.53,
            34.771,
            29.528,
            29.721,
            28.954,
            31.963,
            26.733,
            33.557,
            30.65,
            35.842,
            46.377,
            41.255,
            41.437,
            58.59,
            62.682,
            66.835,
            84.472,
            89.924,
            96.214,
            125.19,
            151.59,
            173.59,
            192.94,
            228.4,
            271.06,
            315.31,
            347.17,
            376.61,
            404.96,
            423.39,
            416.17,
            418.07,
            372.42,
            355.44,
            313.07,
            277.46,
            237.11,
            206.83,
            171.08,
            138.34,
            120.36,
            101.26,
            85.809,
            79.489,
            65.6,
            61.212,
            55.952,
            62.597,
            49.494,
            45.27,
            48.445,
            46.227,
            30.918,
            45.483,
            37.588,
            42.797,
            47.818,
            51.302,
            34.832,
            41.5,
            34.318,
            34.669,
            35.981,
            35.025,
            35.202,
            44.359,
            38.378,
            51.802,
            43.093,
            329.6,
            59.121,
            62.273,
            57.702,
            75.784,
            91.387,
            111.48,
            130.17,
            146.12,
            177.5,
            199.77,
            230.78,
            263.19,
            291.233,
            327.99,
            346.93,
            366.34,
            374.47,
            353.13,
            358.89,
            334.47,
            319.99,
            272.08,
            238.66,
            209.76,
            176.7,
            154.28,
            125.02,
            112.92,
            100.66,
            83.193,
            64.786,
            65.76,
            61.148,
            59.736,
            60.51,
            58.159,
            55.788,
            67.291,
            56.831,
            63.53,
            59.96,
            61.275,
            71.702,
            72.754,
            65.189,
            74.833,
            63.795,
            65.784,
            68.648,
            66.695,
            69.717,
            63.937,
            60.181,
            64.844,
            60.93,
            75.905,
            74.928,
            59.026,
            96.212,
            107.14,
            109.05,
            130.8,
            151.9,
            177.24,
            204.98,
            249.98,
            274.71,
            319.78,
            347.91,
            400.28,
            431.04,
            465.99,
            465.84,
            492.1,
            487.66,
            463.0,
            443.87,
            410.63,
            366.48,
            315.94,
            289.53,
            232.56,
            208.19,
            172.04,
            146.69,
            130.63,
            110.84,
            85.439,
            79.046,
            70.249,
            66.194,
            56.75,
            51.185,
            40.208,
            44.815,
            51.783,
            47.471,
            38.385,
            36.679,
            37.248,
            40.339,
            41.625,
            33.916,
            40.305,
            35.438,
            45.862,
            37.809,
            34.966,
            29.513,
            35.07,
            23.911,
            26.031,
            29.701,
            40.937,
            23.058,
            23.825,
            36.623,
            34.799,
            32.925,
            39.501,
            38.838,
            34.268,
            34.052,
            39.702,
            36.599,
            31.492,
            32.009,
            42.368,
            41.254,
            40.934,
            38.038,
            37.475,
            42.501,
            44.868,
            40.23,
            49.267,
            62.81,
            59.278,
            62.99,
            76.446,
            74.115,
            87.381,
            106.16,
            114.75,
            130.21,
            157.28,
            174.66,
            197.42,
            232.67,
            267.68,
            317.66,
            357.48,
            394.3,
            426.33,
            454.15,
            495.78,
            502.38,
            521.83,
            506.54,
            510.48,
            500.37,
            461.7,
            420.21,
            371.23,
            331.9,
            298.46,
            245.01,
            212.85,
            182.59,
            151.83,
            135.23,
            112.39,
            97.817,
            87.778,
            71.067,
            64.838,
            58.314,
            59.347,
            51.989,
            43.898,
            34.837,
            42.508,
            44.028,
            43.961,
            47.84,
            26.179,
            32.795,
            30.362,
            39.168,
            31.375,
            33.439,
            46.151,
            28.407,
            32.636,
            49.061,
            25.404,
            26.381,
            30.047,
            23.741,
            29.036,
            32.756,
            31.471,
            23.219,
            29.03,
            27.936,
            28.594,
            22.729,
            25.644,
            24.393,
            39.405,
            20.276,
            16.792,
            24.932,
            27.374,
            31.135,
            26.308,
            29.821,
            24.685,
            32.066,
            24.742,
            33.293,
            21.893,
            25.074,
            31.825,
            21.347,
            17.098,
            31.242,
            21.556,
            30.384,
            22.177,
            20.875,
            28.216,
            29.111,
            27.505,
            39.98,
            32.378,
            35.19,
            22.021,
            20.819,
            31.966,
            20.438,
            16.396,
            24.612,
            29.236,
            31.469,
            36.916,
            21.003,
            31.596,
            28.159,
            28.816,
            36.314,
            34.521,
            27.872,
            31.535,
            30.014,
            27.611,
            29.916,
            27.99,
            35.358,
            37.816,
            40.455,
            42.338,
            47.255,
            47.16,
            50.361,
            52.715,
            59.628,
            60.713,
            70.58,
            75.338,
            92.689,
            105.72,
            113.13,
            131.8,
            139.47,
            150.3,
            174.15,
            170.0,
            189.22,
            187.03,
            192.92,
            174.57,
            184.89,
            169.53,
            167.76,
            151.42,
            150.11,
            132.48,
            120.22,
            120.4,
            106.14,
            95.284,
            88.798,
            62.738,
            61.94,
            54.508,
            53.284,
            49.015,
            44.415,
            50.02,
            38.581,
            35.958,
            37.838,
            33.389,
            37.513,
            31.863
          ]
        ]
      }
    },
    "005": {
      "common": null,
      "data": {
        "heads": [
          "EN",
          "DATA"
        ],
        "units": [
          "EV",
          "B"
        ],
        "data": [
          [
            7.9904,
            7.9833,
            7.9768,
            7.9701,
            7.9633,
            7.9565,
            7.9498,
            7.9432,
            7.9363,
            7.9296,
            7.9229,
            7.9162,
            7.9095,
            7.9028,
            7.8962,
            7.8895,
            7.8828,
            7.8762,
            7.8695,
            7.8629,
            7.8563,
            7.8497,
            7.8431,
            7.8365,
            7.8299,
            7.8233,
            7.8167,
            7.7636,
            7.7159,
            7.6687,
            7.6218,
            7.5754,
            7.5294,
            7.4839,
            7.4387,
            7.394,
            7.3496,
            7.3057,
            7.2621,
            7.219,
            7.1762,
            7.1338,
            7.0918,
            7.0501,
            7.0088,
            6.9679,
            6.9273,
            6.8871,
            6.8473,
            6.8077,
            6.7685,
            6.7297,
            6.6912,
            6.653,
            6.6152,
            6.5776,
            6.5404,
            6.5035,
            6.4669,
            6.4306,
            6.3947,
            6.359,
            6.3236,
            6.2885,
            6.2537,
            6.2192,
            6.185,
            6.1511,
            6.1174,
            6.084,
            6.0509,
            6.0181,
            5.9855,
            5.9532,
            5.9212,
            5.8894,
            5.8578,
            5.8265,
            5.7955,
            5.7647,
            5.7342,
            5.7039,
            5.6738,
            5.644,
            5.6144,
            5.585,
            5.5559,
            5.527,
            5.4983,
            5.4699,
            5.4417,
            5.4136,
            5.3859,
            5.3583,
            5.3309,
            5.3037,
            5.2768,
            5.25,
            5.2235,
            5.1971,
            5.171,
            5.145,
            5.1193,
            5.0937,
            5.0683,
            5.0431,
            5.0181,
            4.9933,
            4.9687,
            4.9443,
            4.92,
            4.8959,
            4.872,
            4.8483,
            4.8247,
            4.8013,
            4.7781,
            4.755,
            4.7321,
            4.7094,
            4.6868,
            4.6644,
            4.6422,
            4.6201,
            4.5982,
            4.5764,
            4.5548,
            4.5334,
            4.5121,
            4.4909,
            4.4699,
            4.449,
            4.4283,
            4.4077,
            4.3873,
            4.367,
            4.3469,
            4.3269,
            4.307,
            4.2873,
            4.2677,
            4.2482,
            4.2289,
            4.2097,
            4.1906,
            4.1717,
            4.1528,
            4.1342,
            4.1156,
            4.0972,
            4.0788,
            4.0607,
            4.0426,
            4.0246,
            4.0068,
            3.9891,
            3.9715,
            3.954,
            3.9367,
            3.9194,
            3.9023,
            3.8853,
            3.8684,
            3.8516,
            3.8349,
            3.8183,
            3.8018,
            3.7854,
            3.7692,
            3.753,
            3.737,
            3.721,
            3.7052,
            3.6894,
            3.6738,
            3.6582,
            3.6427,
            3.6274,
            3.6121,
            3.597,
            3.5819,
            3.5669,
            3.5521,
            3.5373,
            3.5226,
            3.508,
            3.4935,
            3.479,
            3.4647,
            3.4505,
            3.4363,
            3.4222,
            3.4083,
            3.3944,
            3.3806,
            3.3668,
            3.3532,
            3.3396,
            3.3261,
            3.3127,
            3.2994,
            3.2862,
            3.273,
            3.26,
            3.2469,
            3.234,
            3.2212,
            3.2084,
            3.1957,
            3.1831,
            3.1706,
            3.1581,
            3.1457,
            3.1334,
            3.1211,
            3.1089,
            3.0968,
            3.0848,
            3.0728,
            3.0609,
            3.0491,
            3.0373,
            3.0256,
            3.014,
            3.0024,
            2.991,
            2.9795,
            2.9682,
            2.9569,
            2.9456,
            2.9345,
            2.9234,
            2.9123,
            2.9013,
            2.8904,
            2.8796,
            2.8688,
            2.858,
            2.8474,
            2.8367,
            2.8262,
            2.8157,
            2.8053,
            2.7949,
            2.7846,
            2.7743,
            2.7641,
            2.7539,
            2.7438,
            2.7338,
            2.7238,
            2.7139,
            2.704,
            2.6942,
            2.6844,
            2.6747,
            2.665,
            2.6554,
            2.6458,
            2.6363,
            2.6269,
            2.6175,
            2.6081,
            2.5988,
            2.5895,
            2.5803,
            2.5712,
            2.5621,
            2.553,
            2.544,
            2.535,
            2.5261,
            2.5172,
            2.5084,
            2.4996,
            2.4909,
            2.4822,
            2.4736,
            2.465,
            2.4564,
            2.4479,
            2.4395,
            2.431,
            2.4227,
            2.4143,
            2.406,
            2.3978,
            2.3896,
            2.3814,
            2.3733,
            2.3652,
            2.3572,
            2.3492,
            2.3412,
            2.3333,
            2.3254,
            2.3176,
            2.3098,
            2.302,
            2.2943,
            2.2866,
            2.279,
            2.2714,
            2.2638,
            2.2563,
            2.2488,
            2.2414,
            2.234,
            2.2266,
            2.2192,
            2.2119,
            2.2047,
            2.1974,
            2.1902,
            2.1831,
            2.1759,
            2.1688,
            2.1618,
            2.1548,
            2.1478,
            2.1408,
            2.1339,
            2.127,
            2.1201,
            2.1133,
            2.1065,
            2.0998,
            2.093,
            2.0864,
            2.0797,
            2.0731,
            2.0665,
            2.0599,
            2.0534,
            2.0469,
            2.0404,
            2.0339,
            2.0275,
            2.0212,
            2.0148,
            2.0085,
            2.0022,
            1.9959,
            1.9897,
            1.9835,
            1.9773,
            1.9712,
            1.9651,
            1.959,
            1.9529,
            1.9469,
            1.9409,
            1.9349,
            1.9289,
            1.923,
            1.9171,
            1.9113,
            1.9054,
            1.8996,
            1.8938,
            1.8881,
            1.8823,
            1.8766,
            1.8709,
            1.8653,
            1.8596,
            1.854,
            1.8485,
            1.8429,
            1.8374,
            1.8319,
            1.8264,
            1.8209,
            1.8155,
            1.8101,
            1.8047,
            1.7993,
            1.794,
            1.7887,
            1.7834,
            1.7781,
            1.7729,
            1.7677,
            1.7625,
            1.7522,
            1.747,
            1.7419,
            1.7369,
            1.7318,
            1.7268,
            1.7217,
            1.7167,
            1.7118,
            1.7068,
            1.7019,
            1.697,
            1.6921,
            1.6872,
            1.6824,
            1.6776,
            1.6728,
            1.668,
            1.6632,
            1.6585,
            1.6538,
            1.649,
            1.6444,
            1.6397,
            1.6351,
            1.6304,
            1.6258,
            1.6213,
            1.6167,
            1.6121,
            1.6076,
            1.6031,
            1.5986,
            1.5942,
            1.5897,
            1.5853,
            1.5809,
            1.5765,
            1.5721,
            1.5677,
            1.5634,
            1.5591,
            1.5505,
            1.5335,
            1.5168,
            1.5004,
            1.4842,
            1.4684,
            1.4527,
            1.4373,
            1.4222,
            1.4073,
            1.3926,
            1.3781,
            1.3639,
            1.3499,
            1.3361,
            1.3225,
            1.3091,
            1.296,
            1.283,
            1.2702,
            1.2576,
            1.2452,
            1.233,
            1.2209,
            1.2091,
            1.1974,
            1.1859,
            1.1745,
            1.1633,
            1.1523,
            1.1414,
            1.1306,
            1.1201,
            1.1096,
            1.0993,
            1.0892,
            1.0792,
            1.0693,
            1.0596,
            1.05,
            1.0405,
            1.0312,
            1.022,
            1.0129,
            1.0039,
            0.995,
            0.9863,
            0.9777,
            0.9692,
            0.9608,
            0.9525,
            0.9443,
            0.9362,
            0.9282,
            0.9204,
            0.9126,
            0.9049,
            0.8973,
            0.8898,
            0.8824,
            0.8751,
            0.8679,
            0.8608,
            0.8538,
            0.8468,
            0.84,
            0.8332,
            0.8265,
            0.8199,
            0.8133,
            0.8069,
            0.8005,
            0.7942,
            0.7879,
            0.7818,
            0.7757,
            0.7697,
            0.7637,
            0.7578,
            0.752,
            0.7463,
            0.7406,
            0.735,
            0.7294,
            0.7239,
            0.7185,
            0.7131,
            0.7078,
            0.7026,
            0.6974,
            0.6923,
            0.6872,
            0.6822,
            0.6772,
            0.6723,
            0.6674,
            0.6626,
            0.6579,
            0.6532,
            0.6485,
            0.6439,
            0.6393,
            0.6348,
            0.6304,
            0.626,
            0.6216,
            0.6173,
            0.613,
            0.6088,
            0.6046,
            0.6004,
            0.5963,
            0.5923,
            0.5883,
            0.5843,
            0.5803,
            0.5764,
            0.5726,
            0.5688,
            0.565,
            0.5612,
            0.5575,
            0.5539,
            0.5502,
            0.5466,
            0.5431,
            0.5395,
            0.536,
            0.5326,
            0.5291,
            0.5257,
            0.5224,
            0.5191,
            0.5158,
            0.5125,
            0.5093,
            0.506,
            0.5029,
            0.4997,
            0.4966,
            0.4935,
            0.4905,
            0.4874,
            0.4844,
            0.4815,
            0.4785,
            0.4756,
            0.4727,
            0.4698,
            0.467,
            0.4642,
            0.4614,
            0.4586,
            0.4559,
            0.4532,
            0.4505,
            0.4478,
            0.4452,
            0.4425,
            0.4399,
            0.4374,
            0.4348,
            0.4323,
            0.4298,
            0.4273,
            0.4248,
            0.4224,
            0.42,
            0.4176,
            0.4152,
            0.4128,
            0.4105,
            0.4082,
            0.4058,
            0.4036,
            0.4013,
            0.3991,
            0.3968,
            0.3946,
            0.3924,
            0.3903,
            0.3881,
            0.386,
            0.3839,
            0.3818,
            0.3797,
            0.3776,
            0.3756,
            0.3735,
            0.3715,
            0.3695,
            0.3675,
            0.3656,
            0.3636,
            0.3617,
            0.3598,
            0.3579,
            0.356,
            0.3541,
            0.3522,
            0.3504,
            0.3486,
            0.3467,
            0.3449,
            0.3432,
            0.3414,
            0.3396,
            0.3379,
            0.3361,
            0.3344,
            0.3327,
            0.331,
            0.3293,
            0.3277,
            0.326,
            0.3244,
            0.3227,
            0.3211,
            0.3195,
            0.3179,
            0.3163,
            0.3148,
            0.3132,
            0.3117,
            0.3101,
            0.3086,
            0.3071,
            0.3056,
            0.3041,
            0.3026,
            0.3011,
            0.2997,
            0.2982,
            0.2968,
            0.2954,
            0.2939,
            0.2925,
            0.2911,
            0.2897,
            0.2884,
            0.287,
            0.2856,
            0.2843,
            0.283,
            0.2816,
            0.2803,
            0.279,
            0.2777,
            0.2764,
            0.2751,
            0.2738,
            0.2726,
            0.2713,
            0.2701,
            0.2688,
            0.2676,
            0.2664,
            0.2652,
            0.264,
            0.2628,
            0.2616,
            0.2604,
            0.2592,
            0.258,
            0.2569,
            0.2557,
            0.2546,
            0.2535,
            0.2523,
            0.2512,
            0.2501,
            0.249,
            0.2479,
            0.2468,
            0.2457,
            0.2446,
            0.2436,
            0.2425,
            0.2415,
            0.2404,
            0.2394,
            0.2383,
            0.2373,
            0.2363,
            0.2353,
            0.2343,
            0.2333,
            0.2323,
            0.2313,
            0.2303,
            0.2293,
            0.2283,
            0.2274,
            0.2264,
            0.2255,
            0.2245,
            0.2236,
            0.2227,
            0.2217,
            0.2208,
            0.2199,
            0.219,
            0.2181,
            0.2172,
            0.2163,
            0.2154,
            0.2145,
            0.2136,
            0.2128,
            0.2119,
            0.211,
            0.2102,
            0.2093,
            0.2085,
            0.2076,
            0.2068,
            0.206,
            0.2051,
            0.2043,
            0.2035,
            0.2027,
            0.2019,
            0.2011,
            0.2003,
            0.1995,
            0.1987,
            0.1979,
            0.1971,
            0.1964,
            0.1956,
            0.1948,
            0.1941,
            0.1933,
            0.1926,
            0.1918,
            0.1911,
            0.1903,
            0.1896,
            0.1889,
            0.1881,
            0.1874,
            0.1867,
            0.186,
            0.1853,
            0.1846,
            0.1839,
            0.1832,
            0.1825,
            0.1818,
            0.1811,
            0.1804,
            0.1798,
            0.1791,
            0.1784,
            0.1777,
            0.1771,
            0.1764,
            0.1758,
            0.1751,
            0.1745,
            0.1738,
            0.1732,
            0.1725,
            0.1719,
            0.1713,
            0.1707,
            0.17,
            0.1694,
            0.1688,
            0.1682,
            0.1676,
            0.167,
            0.1658,
            0.1652,
            0.1646,
            0.164,
            0.1634,
            0.1628,
            0.1622,
            0.1617,
            0.1611,
            0.1605,
            0.1599,
            0.1594,
            0.1588,
            0.1583,
            0.1577,
            0.1571,
            0.1566,
            0.156,
            0.1555,
            0.155,
            0.1544,
            0.1539,
            0.1533,
            0.1528,
            0.1523,
            0.1518,
            0.1512,
            0.1507,
            0.1502,
            0.1497,
            0.1492,
            0.1487,
            0.1482,
            0.1477,
            0.1472,
            0.1467,
            0.1462,
            0.1457,
            0.1452,
            0.1447,
            0.1442,
            0.1437,
            0.1432,
            0.1427,
            0.1423,
            0.1418,
            0.1413,
            0.1409,
            0.1404,
            0.1399,
            0.1395,
            0.139,
            0.1385,
            0.1381,
            0.1376,
            0.1372,
            0.1367,
            0.1363,
            0.1358,
            0.1354,
            0.135,
            0.1345,
            0.1341,
            0.1336,
            0.1332,
            0.1328,
            0.1324,
            0.1319,
            0.1315,
            0.1311,
            0.1307,
            0.1302,
            0.1298,
            0.1294,
            0.129,
            0.1286,
            0.1282,
            0.1278,
            0.1274,
            0.127,
            0.1266,
            0.1262,
            0.1258,
            0.1254,
            0.125,
            0.1246,
            0.1242,
            0.1238,
            0.1234,
            0.1231,
            0.1227,
            0.1223,
            0.1219,
            0.1215,
            0.1212,
            0.1208,
            0.1204,
            0.12,
            0.1197,
            0.1193,
            0.119,
            0.1186,
            0.1182,
            0.1179,
            0.1175,
            0.1172,
            0.1168,
            0.1164,
            0.1161,
            0.1157,
            0.1154,
            0.115,
            0.1147,
            0.1144,
            0.114,
            0.1137,
            0.1133,
            0.113,
            0.1127,
            0.1123,
            0.112,
            0.1117,
            0.1113,
            0.111,
            0.1107,
            0.1104,
            0.11,
            0.1097,
            0.1094,
            0.1091,
            0.1087,
            0.1084,
            0.1081,
            0.1078,
            0.1075,
            0.1072,
            0.1069,
            0.1066,
            0.1062,
            0.1059,
            0.1056,
            0.1053,
            0.105,
            0.1047,
            0.1044,
            0.1041,
            0.1038,
            0.1035,
            0.1032,
            0.1029,
            0.1027,
            0.1024,
            0.1021,
            0.1018,
            0.1015,
            0.1012,
            0.1009,
            0.1006,
            0.1004,
            0.091,
            0.0708,
            0.0566,
            0.0463,
            0.0386,
            0.028,
            0.0242,
            0.0212
          ],
          [
            29.875,
            26.917,
            19.129,
            27.637,
            38.454,
            26.268,
            28.319,
            34.356,
            17.981,
            28.838,
            31.697,
            23.22,
            30.664,
            34.294,
            22.847,
            24.731,
            20.135,
            30.919,
            29.982,
            36.946,
            28.007,
            32.603,
            32.072,
            20.492,
            17.159,
            27.702,
            32.499,
            54.842,
            51.43,
            50.08,
            53.99,
            63.63,
            62.5,
            67.04,
            41.1,
            39.55,
            29.65,
            31.24,
            32.24,
            40.94,
            33.11,
            18.51,
            28.86,
            33.52,
            28.73,
            30.46,
            36.25,
            27.76,
            52.09,
            48.05,
            46.58,
            60.8,
            67.47,
            65.09,
            61.69,
            52.81,
            35.79,
            26.25,
            45.54,
            14.56,
            37.0,
            33.29,
            55.79,
            53.76,
            78.6,
            80.9,
            112.31,
            142.15,
            149.11,
            166.97,
            145.81,
            128.25,
            96.43,
            74.22,
            55.44,
            45.23,
            52.02,
            43.71,
            56.08,
            45.91,
            43.54,
            46.98,
            77.46,
            64.46,
            91.69,
            105.3,
            167.35,
            204.98,
            286.73,
            403.72,
            524.11,
            644.3,
            693.25,
            589.13,
            463.2,
            364.66,
            273.47,
            201.13,
            137.58,
            127.35,
            107.11,
            95.52,
            83.94,
            97.68,
            110.84,
            161.06,
            218.48,
            241.09,
            316.97,
            321.83,
            294.04,
            229.53,
            186.81,
            142.85,
            98.4,
            61.9,
            60.18,
            50.92,
            39.95,
            38.07,
            37.93,
            35.68,
            27.6,
            38.19,
            29.92,
            34.44,
            41.01,
            35.87,
            29.36,
            35.18,
            20.29,
            28.12,
            37.57,
            38.39,
            35.53,
            18.21,
            42.73,
            33.81,
            43.79,
            19.8,
            29.45,
            36.88,
            50.32,
            39.0,
            45.59,
            43.74,
            93.03,
            53.07,
            56.01,
            81.8,
            115.36,
            138.56,
            205.6,
            268.35,
            348.36,
            433.85,
            506.12,
            553.7,
            528.4,
            427.55,
            332.41,
            271.3,
            179.67,
            133.77,
            97.42,
            80.89,
            70.5,
            49.48,
            49.17,
            60.57,
            32.22,
            36.11,
            22.97,
            50.35,
            28.59,
            35.8,
            36.61,
            40.48,
            31.25,
            40.29,
            38.34,
            31.6,
            30.19,
            20.32,
            22.59,
            25.24,
            26.61,
            32.99,
            36.43,
            28.8,
            28.71,
            36.69,
            40.39,
            15.26,
            28.91,
            28.84,
            32.76,
            33.42,
            50.25,
            33.6,
            22.95,
            40.92,
            26.49,
            34.99,
            27.36,
            37.12,
            27.29,
            43.08,
            40.52,
            32.1,
            42.14,
            21.26,
            35.04,
            34.15,
            46.27,
            37.84,
            23.04,
            37.17,
            11.41,
            41.44,
            30.37,
            43.82,
            28.78,
            41.45,
            31.45,
            42.81,
            34.75,
            36.45,
            35.39,
            30.53,
            36.27,
            38.76,
            45.37,
            39.43,
            51.42,
            45.95,
            76.27,
            28.2,
            44.6,
            53.32,
            41.48,
            38.15,
            72.47,
            59.12,
            43.8,
            51.37,
            37.23,
            64.31,
            83.36,
            61.98,
            73.44,
            62.85,
            88.09,
            89.21,
            113.19,
            149.88,
            184.98,
            265.94,
            279.25,
            329.08,
            424.29,
            512.6,
            668.17,
            756.7,
            848.51,
            772.07,
            869.73,
            809.01,
            687.48,
            574.91,
            438.64,
            376.25,
            316.51,
            270.0,
            220.6,
            195.1,
            164.77,
            155.26,
            146.42,
            141.18,
            154.93,
            150.48,
            165.69,
            189.78,
            236.53,
            283.49,
            315.81,
            393.5,
            430.73,
            484.23,
            548.28,
            537.32,
            511.37,
            545.94,
            478.01,
            383.77,
            311.19,
            255.61,
            221.89,
            178.6,
            147.34,
            144.99,
            115.62,
            106.98,
            86.87,
            92.67,
            77.85,
            74.31,
            74.16,
            96.01,
            68.91,
            55.42,
            79.54,
            60.05,
            54.55,
            65.31,
            57.48,
            60.26,
            54.45,
            50.49,
            62.7,
            52.56,
            78.55,
            54.9,
            63.77,
            64.51,
            66.6,
            68.51,
            72.93,
            70.59,
            73.91,
            77.11,
            86.27,
            71.42,
            84.72,
            90.8,
            95.13,
            114.64,
            111.32,
            126.44,
            137.02,
            167.97,
            166.98,
            215.2,
            243.53,
            287.32,
            324.4,
            415.95,
            472.05,
            568.01,
            703.46,
            703.07,
            884.63,
            1061.68,
            880.8,
            950.84,
            1151.09,
            966.26,
            900.78,
            874.62,
            747.32,
            653.55,
            542.77,
            420.83,
            383.62,
            330.02,
            298.16,
            274.03,
            224.51,
            201.75,
            189.87,
            166.94,
            121.19,
            128.29,
            118.31,
            110.0,
            107.71,
            98.07,
            103.6,
            91.9,
            90.19,
            91.81,
            85.81,
            88.31,
            78.83,
            78.46,
            61.26,
            81.2,
            67.77,
            48.22,
            62.44,
            76.83,
            69.13,
            63.45,
            64.97,
            62.01,
            70.64,
            63.16,
            48.6,
            45.31,
            71.39,
            77.63,
            65.72,
            66.66,
            61.71,
            57.67,
            74.5,
            65.13,
            65.85,
            62.5,
            81.7,
            86.78,
            70.12,
            66.6,
            80.53,
            75.25,
            97.62,
            73.69,
            66.0,
            76.44,
            68.71,
            61.96,
            94.93,
            77.24,
            66.94,
            73.08,
            78.11,
            150.99,
            149.6,
            155.42,
            167.28,
            151.2,
            209.73,
            228.0,
            227.7,
            297.46,
            367.51,
            461.54,
            683.6,
            897.36,
            1149.89,
            1489.07,
            1993.99,
            2443.72,
            3002.07,
            3177.94,
            2939.54,
            2530.26,
            2015.82,
            1620.75,
            1246.51,
            971.51,
            732.02,
            550.8,
            455.6,
            391.0,
            310.34,
            306.8,
            270.35,
            220.23,
            245.37,
            199.3,
            176.47,
            160.15,
            137.67,
            134.37,
            184.94,
            160.78,
            115.64,
            129.91,
            135.29,
            104.86,
            138.1,
            146.08,
            118.43,
            93.07,
            135.52,
            115.06,
            115.79,
            151.1,
            123.37,
            107.12,
            118.53,
            110.99,
            143.29,
            99.13,
            111.34,
            156.57,
            135.73,
            149.24,
            134.78,
            106.56,
            122.53,
            141.86,
            122.59,
            125.9,
            151.77,
            161.03,
            124.18,
            119.1,
            109.16,
            133.89,
            170.48,
            150.52,
            123.61,
            265.83,
            123.2,
            181.43,
            210.02,
            168.01,
            116.07,
            185.96,
            250.56,
            224.7,
            237.34,
            259.87,
            250.85,
            274.21,
            288.87,
            241.46,
            319.14,
            361.1,
            336.84,
            390.87,
            410.76,
            527.02,
            541.38,
            616.42,
            679.23,
            782.8,
            888.2,
            990.64,
            1137.62,
            1392.28,
            1571.23,
            1828.88,
            2121.1,
            2444.78,
            2729.38,
            3060.83,
            3339.8,
            3786.49,
            3751.78,
            4026.74,
            3851.91,
            3679.93,
            3546.4,
            3060.62,
            2839.16,
            2476.17,
            2125.25,
            1966.45,
            1664.45,
            1546.06,
            1368.25,
            1190.12,
            1104.86,
            1015.3,
            924.49,
            820.65,
            753.67,
            657.31,
            725.7,
            621.91,
            559.54,
            554.01,
            516.6,
            526.52,
            509.49,
            481.37,
            442.71,
            426.03,
            441.8,
            402.66,
            272.09,
            395.03,
            350.69,
            302.09,
            332.13,
            381.2,
            333.89,
            339.74,
            330.69,
            347.59,
            381.17,
            363.74,
            311.0,
            370.8,
            364.96,
            344.06,
            375.38,
            392.18,
            338.89,
            376.92,
            353.46,
            386.48,
            391.42,
            387.28,
            428.21,
            405.37,
            452.15,
            418.77,
            422.08,
            417.87,
            400.44,
            460.76,
            401.34,
            457.23,
            566.61,
            514.65,
            534.44,
            585.18,
            571.91,
            635.68,
            663.69,
            670.63,
            710.74,
            697.17,
            764.53,
            811.01,
            872.87,
            950.53,
            994.01,
            1025.76,
            1054.7,
            1129.21,
            1206.03,
            1275.79,
            1409.04,
            1465.17,
            1540.78,
            1680.06,
            1763.52,
            1926.96,
            2002.29,
            2185.77,
            2350.54,
            2510.51,
            2504.9,
            2835.69,
            2932.07,
            3117.38,
            3393.7,
            3594.8,
            3687.83,
            3975.73,
            4084.86,
            4201.97,
            4625.11,
            4576.08,
            4924.51,
            5057.52,
            4920.16,
            4913.0,
            4829.56,
            4997.45,
            4893.81,
            4797.97,
            4622.25,
            4557.58,
            4323.16,
            4135.61,
            4057.69,
            3769.36,
            4058.23,
            3463.57,
            3400.29,
            3174.76,
            3045.58,
            2857.95,
            2697.42,
            2628.85,
            2471.45,
            2260.47,
            2257.72,
            2146.89,
            1967.29,
            1985.23,
            1882.43,
            1777.85,
            1620.1,
            1610.19,
            1525.25,
            1486.79,
            1402.89,
            1386.07,
            1295.48,
            1284.43,
            1272.35,
            1184.81,
            1173.69,
            1095.49,
            1084.36,
            1025.59,
            1073.43,
            965.28,
            942.61,
            949.21,
            909.28,
            893.52,
            864.02,
            845.75,
            811.88,
            826.58,
            792.91,
            743.06,
            749.99,
            366.23,
            700.62,
            740.26,
            683.18,
            710.26,
            622.94,
            660.64,
            630.6,
            581.24,
            600.77,
            629.22,
            588.04,
            603.19,
            535.82,
            579.4,
            594.26,
            701.17,
            513.4,
            526.05,
            545.77,
            512.65,
            532.07,
            519.22,
            470.02,
            518.71,
            499.87,
            473.17,
            514.01,
            476.99,
            489.47,
            102.38,
            448.51,
            456.61,
            442.4,
            449.15,
            464.99,
            455.35,
            416.59,
            447.14,
            461.33,
            378.73,
            406.03,
            396.63,
            400.26,
            420.25,
            382.66,
            398.35,
            435.88,
            384.54,
            396.05,
            382.43,
            392.37,
            393.91,
            376.82,
            406.61,
            394.05,
            385.87,
            409.94,
            368.38,
            712.32,
            345.78,
            391.78,
            392.19,
            353.2,
            382.16,
            368.98,
            390.24,
            339.97,
            370.37,
            359.38,
            350.6,
            370.77,
            373.17,
            352.32,
            311.93,
            354.03,
            337.78,
            341.83,
            436.39,
            343.92,
            350.97,
            377.87,
            364.76,
            358.53,
            343.59,
            346.32,
            333.8,
            351.86,
            375.15,
            343.67,
            336.16,
            334.79,
            346.21,
            345.31,
            328.19,
            338.23,
            338.56,
            333.5,
            337.18,
            328.94,
            323.37,
            324.52,
            312.93,
            315.15,
            310.79,
            321.75,
            333.2,
            325.59,
            353.08,
            313.43,
            305.35,
            318.84,
            306.53,
            295.81,
            338.51,
            318.46,
            333.1,
            313.7,
            321.25,
            290.59,
            290.26,
            310.83,
            307.94,
            312.31,
            317.76,
            304.39,
            335.27,
            304.78,
            319.47,
            302.36,
            305.97,
            311.14,
            322.61,
            317.14,
            334.25,
            323.51,
            325.74,
            307.1,
            341.8,
            314.71,
            312.39,
            328.63,
            294.11,
            329.47,
            341.41,
            327.78,
            287.95,
            340.41,
            304.41,
            336.5,
            329.13,
            316.6,
            304.76,
            305.61,
            373.3,
            316.42,
            312.82,
            312.85,
            294.9,
            330.56,
            331.52,
            306.88,
            303.75,
            320.41,
            374.9,
            366.65,
            324.52,
            318.99,
            303.59,
            310.47,
            332.6,
            298.35,
            315.8,
            301.4,
            313.42,
            305.6,
            316.11,
            335.7,
            313.96,
            335.27,
            309.46,
            292.88,
            314.92,
            464.25,
            325.12,
            314.12,
            586.77,
            328.56,
            335.89,
            314.52,
            313.12,
            308.51,
            315.64,
            319.88,
            328.21,
            304.01,
            305.18,
            311.41,
            319.62,
            291.17,
            320.01,
            317.41,
            310.78,
            318.82,
            300.68,
            325.06,
            300.96,
            318.2,
            312.28,
            336.11,
            325.91,
            312.08,
            321.77,
            337.53,
            343.5,
            327.48,
            333.07,
            327.76,
            561.54,
            331.8,
            325.09,
            332.69,
            323.67,
            311.15,
            321.96,
            338.55,
            335.54,
            312.65,
            328.33,
            320.47,
            321.08,
            313.51,
            340.51,
            332.62,
            330.06,
            326.76,
            321.78,
            338.63,
            319.11,
            324.05,
            333.34,
            318.35,
            338.68,
            330.9,
            319.46,
            318.13,
            339.01,
            321.25,
            325.87,
            304.9,
            340.65,
            374.35,
            416.79,
            461.87,
            502.01,
            612.75,
            647.38,
            693.82
          ]
        ]
      }
    },
    "006": {
      "common": null,
      "data": {
        "heads": [
          "EN",
          "DATA      1",
          "DATA-ERR  1",
          "DATA      2",
          "DATA-ERR  2"
        ],
        "units": [
          "EV",
          "B",
          "B",
          "B",
          "B"
        ],
        "data": [
          [
            0.0253
          ],
          [
            640.0
          ],
          [
            20.0
          ],
          [
            624.0
          ],
          [
            20.0
          ]
        ]
      }
    },
    "007": {
      "common": null,
      "data": {
        "heads": [
          "EN-MIN",
          "EN-MAX",
          "DATA",
          "DATA-ERR"
        ],
        "units": [
          "EV",
          "EV",
          "B",
          "B"
        ],
        "data": [
          [
            0.025
          ],
          [
            26.0
          ],
          [
            1650.0
          ],
          [
            120.0
          ]
        ]
      }
    },
    "008": {
      "common": null,
      "data": {
        "heads": [
          "EN-MIN",
          "EN-MAX",
          "DATA",
          "DATA-ERR",
          "MOMENTUM L"
        ],
        "units": [
          "EV",
          "EV",
          "NO-DIM",
          "NO-DIM",
          "NO-DIM"
        ],
        "data": [
          [
            0.025
          ],
          [
            26.0
          ],
          [
            7.6e-06
          ],
          [
            1.8e-05
          ],
          [
            0.0
          ]
        ]
      }
    },
    "009": {
      "common": null,
      "data": {
        "heads": [
          "EN-MIN",
          "EN-MAX",
          "DATA",
          "DATA-ERR"
        ],
        "units": [
          "EV",
          "EV",
          "EV",
          "EV"
        ],
        "data": [
          [
            0.025
          ],
          [
            26.0
          ],
          [
            0.67
          ],
          [
            0.1
          ]
        ]
      }
    },
    "010": {
      "common": null,
      "data": {
        "heads": [
          "EN-MIN",
          "EN-MAX",
          "DATA"
        ],
        "units": [
          "EV",
          "EV",
          "EV"
        ],
        "data": [
          [
            0.025
          ],
          [
            26.0
          ],
          [
            0.000102
          ]
        ]
      }
    }
  },
  "experimental_conditions": {
    "001": {
      "0": {
        "analysis": [
          {
            "x4_code": "(SLA)",
            "free_txt": [
              " Single level analysis is made up to neutron",
              "energy of 26.0 eV."
            ]
          },
          {
            "x4_code": "(AREA)",
            "free_txt": [
              " Area analysis is made fop levels over 26.0 eV."
            ]
          }
        ],
        "correction": [
          {
            "x4_code": null,
            "free_txt": [
              "Correction (3 % ) is introduced on neutron",
              "scattering by oxygen."
            ]
          }
        ],
        "detector": [
          {
            "x4_code": "(PROPC)",
            "free_txt": [
              " Battery of He-proportional counters."
            ]
          }
        ],
        "err-analys": [
          {
            "x4_code": "(DATA-ERR)",
            "free_txt": [
              "  Includes:"
            ]
          },
          {
            "x4_code": "(ERR-S,0.6,1.0)",
            "free_txt": [
              " statistical error."
            ]
          }
        ],
        "facility": [
          {
            "x4_code": "(REAC,4RUSNIR)",
            "free_txt": [
              "  Data above 8 eV ."
            ]
          },
          {
            "x4_code": "(REAC,4RUSITE)",
            "free_txt": [
              "  Data below 8 eV ."
            ]
          }
        ],
        "method": [
          {
            "x4_code": "(TOF)",
            "free_txt": [
              " Time-of-flight method with resolution 70 nsec/m."
            ]
          },
          {
            "x4_code": "(TRN)",
            "free_txt": [
              " Transmission method ."
            ]
          }
        ],
        "monitor": [
          {
            "x4_code": null,
            "free_txt": [
              "Absolute measurement"
            ]
          }
        ],
        "sample": [
          {
            "x4_code": null,
            "free_txt": [
              "Oxide of Am-241 with 99.9+-0.2 mg weight. Am-241",
              "contents is 99.99 %. Pu-239 and Np-237 contents",
              "is up to 0.002 % ."
            ]
          }
        ],
        "status": [
          {
            "x4_code": "(APRVD)",
            "free_txt": [
              " Total cs and new data obtained from the authors"
            ]
          }
        ]
      }
    },
    "002": {
      "0": {
        "status": [
          {
            "x4_code": "(DEP,40305004)",
            "free_txt": []
          },
          {
            "x4_code": "(DEP,40305005)",
            "free_txt": []
          },
          {
            "x4_code": "(TABLE)",
            "free_txt": [
              " Table of J,AE,40,(4),303,1976 res.par in",
              "  -0.425 eV - 29.43 eV .",
              "Table of C,75KIEV,3,214,19760 - res.par.for =<25.60 eV.",
              "Table 1 of J,AE,38(1),29 - res.par. in 8.17eV -29.43eV."
            ]
          }
        ]
      }
    },
    "003": {
      "0": {
        "status": [
          {
            "x4_code": "(DEP,40305004)",
            "free_txt": []
          },
          {
            "x4_code": "(DEP,40305005)",
            "free_txt": []
          }
        ]
      }
    },
    "004": {
      "0": {
        "facility": [
          {
            "x4_code": "(REAC,4RUSNIR)",
            "free_txt": [
              " Data were measured at 4RUSNIR ."
            ]
          }
        ]
      }
    },
    "005": {
      "0": {
        "correction": [
          {
            "x4_code": null,
            "free_txt": [
              " For scattering by oxygen."
            ]
          }
        ],
        "err-analys": [
          {
            "x4_code": null,
            "free_txt": [
              " Statistical error - 0.6 - 1.% .",
              " Error of neutron background - 1-3% ."
            ]
          }
        ],
        "facility": [
          {
            "x4_code": "(REAC,4RUSITE)",
            "free_txt": [
              " Data were measured at 4RUSITE ."
            ]
          }
        ],
        "status": [
          {
            "x4_code": null,
            "free_txt": [
              "  Data are presented on Fig.1 of AE,40,(4),303,1976 ."
            ]
          }
        ]
      }
    },
    "006": {
      "0": {
        "status": [
          {
            "x4_code": "(TABLE)",
            "free_txt": [
              " Text  page 306 of J,AE,40,(4),303,1976."
            ]
          }
        ]
      }
    },
    "007": {
      "0": {
        "status": [
          {
            "x4_code": null,
            "free_txt": [
              " Text  page 306 of J,AE,40,(4),303,1976."
            ]
          }
        ]
      }
    },
    "008": {
      "0": {
        "status": [
          {
            "x4_code": null,
            "free_txt": [
              " Text  page 306 of J,AE,40,(4),303,1976."
            ]
          }
        ]
      }
    },
    "009": {
      "0": {
        "status": [
          {
            "x4_code": null,
            "free_txt": [
              " Text  page 306 of J,AE,40,(4),303,1976."
            ]
          }
        ]
      }
    },
    "010": {
      "0": {
        "status": [
          {
            "x4_code": null,
            "free_txt": [
              " Text  page 306 of J,AE,40,(4),303,1976."
            ]
          }
        ]
      }
    }
  }
}