{
  "entry": "20014",
  "last_updated": "2019-04-24",
  "number_of_revisions": "4",
  "histories": [
    {
      "x4_code": "(19701211R)",
      "free_txt": [
        "  Data received on tape."
      ]
    },
    {
      "x4_code": "(19710115C)",
      "free_txt": []
    },
    {
      "x4_code": "(19860310A)",
      "free_txt": [
        "N.Ch"
      ]
    },
    {
      "x4_code": "(19860620U)",
      "free_txt": [
        " in comment  HH"
      ]
    },
    {
      "x4_code": "(20190114U)",
      "free_txt": [
        " SD:Updated to new date formats,lower case.",
        "BIB updated."
      ]
    }
  ],
  "bib_record": {
    "title": " Neutron scattering from N-15 (I) R-matrix and phase-shift analyses (II) Coupled channel calculations",
    "authors": [
      {
        "name": "B.Zeitnitz"
      },
      {
        "name": "H.H.Dubenkropp"
      },
      {
        "name": "R.Putzki"
      },
      {
        "name": "G.J.Kirouac"
      },
      {
        "name": "S.Cierjacks"
      },
      {
        "name": "J.Nebe"
      },
      {
        "name": "C.B.Dover"
      }
    ],
    "institutes": [
      {
        "x4_code": "(2GERKFK)",
        "free_txt": ""
      },
      {
        "x4_code": "(2GERMPH)",
        "free_txt": ""
      }
    ],
    "references": [
      {
        "x4_code": "(J,NP/A,166,443,1971)",
        "free_txt": [
          " (I) R-matrix and phase-shift",
          "                          analyses"
        ],
        "publication_year": "1971",
        "pointer": "0"
      },
      {
        "x4_code": "(J,NP/A,166,461,1971)",
        "free_txt": [
          "(II) Coupled channel calculations"
        ],
        "publication_year": "1971",
        "pointer": "0"
      },
      {
        "x4_code": "(R,KFK-1443,1971)",
        "free_txt": [
          " -  same as both prev.refs"
        ],
        "publication_year": "1971",
        "pointer": "0"
      }
    ],
    "facilities": [
      {
        "x4_code": "(ISOCY,2GERKFK)",
        "free_txt": [
          " 45 MeV Karlsruhe isochronous cyclotron",
          ".Burst width 1.5 ns, repetition rate 20 kc/s."
        ],
        "pointer": "0",
        "facility_type": "(ISOCY)",
        "institute": "(2GERKFK)"
      }
    ]
  },
  "reactions": {
    "002": {
      "0": {
        "x4_code": "(7-N-15(N,TOT),,SIG)",
        "children": [
          {
            "code": [
              "7-N-15",
              [
                "N,TOT"
              ],
              ",,SIG"
            ],
            "type": null,
            "target": "7-N-15",
            "process": "N,TOT",
            "sf49": ",,SIG",
            "sf4": null,
            "sf5": null,
            "sf6": "SIG",
            "sf7": null,
            "sf8": null,
            "sf9": null
          }
        ],
        "type": null,
        "free_text": ""
      }
    }
  },
  "data_tables": {
    "001": {
      "common": null
    },
    "002": {
      "common": {
        "heads": [
          "EN-RSL",
          "ERR-T"
        ],
        "units": [
          "NSEC/M",
          "PER-CENT"
        ],
        "data": [
          [
            0.047
          ],
          [
            4.0
          ]
        ]
      },
      "data": {
        "heads": [
          "EN",
          "DATA"
        ],
        "units": [
          "MEV",
          "B"
        ],
        "data": [
          [
            0.89555,
            0.89719,
            0.89883,
            0.90048,
            0.90213,
            0.90379,
            0.90546,
            0.90712,
            0.9088,
            0.91048,
            0.91216,
            0.91384,
            0.91553,
            0.91722,
            0.91892,
            0.92062,
            0.92233,
            0.92405,
            0.92577,
            0.92749,
            0.92922,
            0.93095,
            0.93269,
            0.93443,
            0.93618,
            0.93794,
            0.94058,
            0.9441,
            0.94766,
            0.95123,
            0.95483,
            0.95844,
            0.96208,
            0.96574,
            0.96942,
            0.97312,
            0.97683,
            0.98058,
            0.98434,
            0.98813,
            0.99193,
            0.99577,
            0.99957,
            1.0034,
            1.0073,
            1.0113,
            1.0153,
            1.0193,
            1.0233,
            1.0273,
            1.0313,
            1.0353,
            1.0393,
            1.0434,
            1.0475,
            1.0518,
            1.0559,
            1.0606,
            1.0648,
            1.0692,
            1.0734,
            1.0777,
            1.0821,
            1.0864,
            1.0908,
            1.0917,
            1.0923,
            1.0928,
            1.0934,
            1.0939,
            1.0945,
            1.095,
            1.0956,
            1.0961,
            1.0967,
            1.0972,
            1.0978,
            1.0984,
            1.0989,
            1.0995,
            1.1008,
            1.103,
            1.1053,
            1.1086,
            1.1132,
            1.1177,
            1.1223,
            1.1269,
            1.1316,
            1.1362,
            1.141,
            1.1457,
            1.1505,
            1.1552,
            1.1601,
            1.1649,
            1.1698,
            1.1746,
            1.1796,
            1.1845,
            1.1895,
            1.1945,
            1.1996,
            1.2047,
            1.2098,
            1.215,
            1.2202,
            1.2254,
            1.2307,
            1.2359,
            1.2413,
            1.2466,
            1.252,
            1.2575,
            1.263,
            1.2685,
            1.274,
            1.2796,
            1.2852,
            1.2909,
            1.2965,
            1.3023,
            1.308,
            1.3138,
            1.3197,
            1.3255,
            1.3315,
            1.3374,
            1.3434,
            1.3495,
            1.3555,
            1.3617,
            1.3678,
            1.374,
            1.3803,
            1.3866,
            1.393,
            1.3994,
            1.4058,
            1.4122,
            1.4187,
            1.4252,
            1.4318,
            1.4385,
            1.4452,
            1.4519,
            1.4587,
            1.4655,
            1.4724,
            1.4793,
            1.4863,
            1.4934,
            1.5005,
            1.5076,
            1.5148,
            1.522,
            1.5293,
            1.5366,
            1.5422,
            1.5459,
            1.5496,
            1.5576,
            1.5586,
            1.5595,
            1.5604,
            1.5614,
            1.5623,
            1.5633,
            1.5642,
            1.5652,
            1.5661,
            1.5671,
            1.568,
            1.569,
            1.5699,
            1.5709,
            1.576,
            1.5799,
            1.5837,
            1.5876,
            1.5915,
            1.5954,
            1.5993,
            1.6032,
            1.6071,
            1.6111,
            1.6151,
            1.619,
            1.623,
            1.627,
            1.631,
            1.6351,
            1.6391,
            1.6432,
            1.6473,
            1.6513,
            1.6554,
            1.6596,
            1.6637,
            1.6679,
            1.672,
            1.6762,
            1.6804,
            1.6846,
            1.6889,
            1.6931,
            1.6974,
            1.7017,
            1.706,
            1.7103,
            1.7146,
            1.719,
            1.7233,
            1.7277,
            1.7321,
            1.7365,
            1.741,
            1.7454,
            1.7499,
            1.7544,
            1.7589,
            1.7634,
            1.7679,
            1.7725,
            1.777,
            1.7816,
            1.7862,
            1.7909,
            1.7955,
            1.8002,
            1.8008,
            1.802,
            1.8032,
            1.8043,
            1.8055,
            1.8067,
            1.8078,
            1.809,
            1.8102,
            1.8114,
            1.8126,
            1.8137,
            1.8149,
            1.8161,
            1.8173,
            1.8185,
            1.8197,
            1.8208,
            1.822,
            1.8232,
            1.8244,
            1.8256,
            1.8268,
            1.828,
            1.8292,
            1.8304,
            1.8316,
            1.8328,
            1.834,
            1.8352,
            1.8364,
            1.8376,
            1.8388,
            1.84,
            1.8412,
            1.8424,
            1.8436,
            1.8448,
            1.846,
            1.8473,
            1.8485,
            1.8497,
            1.8509,
            1.8521,
            1.8533,
            1.8546,
            1.8558,
            1.857,
            1.8582,
            1.8595,
            1.8607,
            1.8619,
            1.8631,
            1.8644,
            1.8656,
            1.8668,
            1.8681,
            1.8693,
            1.8705,
            1.8718,
            1.873,
            1.8742,
            1.8755,
            1.8767,
            1.878,
            1.8792,
            1.8805,
            1.8817,
            1.883,
            1.8842,
            1.8855,
            1.8867,
            1.888,
            1.8892,
            1.8905,
            1.8917,
            1.893,
            1.8943,
            1.8955,
            1.8968,
            1.898,
            1.8993,
            1.9006,
            1.9018,
            1.9031,
            1.9044,
            1.9056,
            1.9069,
            1.9082,
            1.9095,
            1.9107,
            1.912,
            1.9133,
            1.9146,
            1.9159,
            1.9171,
            1.9184,
            1.9197,
            1.921,
            1.9223,
            1.9236,
            1.9249,
            1.9262,
            1.9275,
            1.9287,
            1.93,
            1.9313,
            1.9326,
            1.9339,
            1.9352,
            1.9365,
            1.9378,
            1.9391,
            1.9405,
            1.9418,
            1.9431,
            1.9444,
            1.9457,
            1.947,
            1.9483,
            1.9496,
            1.9509,
            1.9523,
            1.9536,
            1.9549,
            1.9562,
            1.9576,
            1.9589,
            1.9602,
            1.9615,
            1.9629,
            1.9642,
            1.9655,
            1.9669,
            1.9682,
            1.9695,
            1.9709,
            1.9722,
            1.9735,
            1.9749,
            1.9762,
            1.9776,
            1.9789,
            1.9803,
            1.9816,
            1.983,
            1.9843,
            1.9857,
            1.987,
            1.9884,
            1.9897,
            1.9911,
            1.9924,
            1.9938,
            1.9952,
            1.9965,
            1.9979,
            1.9993,
            2.0006,
            2.002,
            2.0034,
            2.0047,
            2.0061,
            2.0075,
            2.0089,
            2.0102,
            2.0116,
            2.013,
            2.0144,
            2.0158,
            2.0171,
            2.0185,
            2.0199,
            2.0213,
            2.0227,
            2.0241,
            2.0255,
            2.0269,
            2.0283,
            2.0297,
            2.0311,
            2.0325,
            2.0339,
            2.0353,
            2.0367,
            2.0381,
            2.0395,
            2.0409,
            2.0423,
            2.0437,
            2.0451,
            2.0465,
            2.048,
            2.0494,
            2.0508,
            2.0522,
            2.0536,
            2.0551,
            2.0565,
            2.0579,
            2.0593,
            2.0608,
            2.0622,
            2.0636,
            2.0651,
            2.0665,
            2.0679,
            2.0694,
            2.0708,
            2.0723,
            2.0737,
            2.0751,
            2.0766,
            2.078,
            2.0795,
            2.0809,
            2.0824,
            2.0838,
            2.0853,
            2.0868,
            2.0882,
            2.0897,
            2.0911,
            2.0926,
            2.0941,
            2.0955,
            2.097,
            2.0985,
            2.0999,
            2.1014,
            2.1029,
            2.1044,
            2.1058,
            2.1073,
            2.1088,
            2.1103,
            2.1118,
            2.1132,
            2.1147,
            2.1162,
            2.1177,
            2.1192,
            2.1207,
            2.1222,
            2.1237,
            2.1252,
            2.1267,
            2.1282,
            2.1297,
            2.1312,
            2.1327,
            2.1342,
            2.1357,
            2.1372,
            2.1387,
            2.1402,
            2.1417,
            2.1433,
            2.1448,
            2.1463,
            2.1478,
            2.1493,
            2.1509,
            2.1524,
            2.1539,
            2.1555,
            2.157,
            2.1585,
            2.1601,
            2.1616,
            2.1631,
            2.1647,
            2.1662,
            2.1677,
            2.1693,
            2.1708,
            2.1724,
            2.1739,
            2.1755,
            2.177,
            2.1786,
            2.1801,
            2.1817,
            2.1833,
            2.1848,
            2.1864,
            2.1879,
            2.1895,
            2.1911,
            2.1926,
            2.1942,
            2.1958,
            2.1974,
            2.1989,
            2.2005,
            2.2021,
            2.2037,
            2.2053,
            2.2068,
            2.2084,
            2.21,
            2.2116,
            2.2132,
            2.2148,
            2.2164,
            2.218,
            2.2196,
            2.2212,
            2.2228,
            2.2244,
            2.226,
            2.2276,
            2.2292,
            2.2308,
            2.2324,
            2.234,
            2.2357,
            2.2373,
            2.2389,
            2.2405,
            2.2421,
            2.2438,
            2.2454,
            2.247,
            2.2486,
            2.2503,
            2.2519,
            2.2535,
            2.2552,
            2.2568,
            2.2585,
            2.2601,
            2.2617,
            2.2634,
            2.265,
            2.2667,
            2.2683,
            2.27,
            2.2716,
            2.2733,
            2.275,
            2.2766,
            2.2783,
            2.28,
            2.2816,
            2.2833,
            2.285,
            2.2866,
            2.2883,
            2.29,
            2.2916,
            2.2933,
            2.295,
            2.2967,
            2.2984,
            2.3001,
            2.3017,
            2.3034,
            2.3051,
            2.3068,
            2.3085,
            2.3102,
            2.3119,
            2.3136,
            2.3153,
            2.317,
            2.3187,
            2.3204,
            2.3221,
            2.3239,
            2.3256,
            2.3273,
            2.329,
            2.3307,
            2.3324,
            2.3342,
            2.3359,
            2.3376,
            2.3394,
            2.3411,
            2.3428,
            2.3446,
            2.3463,
            2.348,
            2.3498,
            2.3515,
            2.3533,
            2.355,
            2.3567,
            2.3585,
            2.3603,
            2.362,
            2.3638,
            2.3655,
            2.3673,
            2.369,
            2.3708,
            2.3726,
            2.3743,
            2.3761,
            2.3779,
            2.3797,
            2.3814,
            2.3832,
            2.385,
            2.3868,
            2.3886,
            2.3903,
            2.3921,
            2.3939,
            2.3957,
            2.3975,
            2.3993,
            2.4011,
            2.4029,
            2.4047,
            2.4065,
            2.4083,
            2.4101,
            2.4119,
            2.4138,
            2.4156,
            2.4174,
            2.4192,
            2.421,
            2.4228,
            2.4247,
            2.4265,
            2.4283,
            2.4302,
            2.432,
            2.4338,
            2.4357,
            2.4375,
            2.4393,
            2.4412,
            2.443,
            2.4449,
            2.4467,
            2.4486,
            2.4504,
            2.4523,
            2.4542,
            2.456,
            2.4579,
            2.4597,
            2.4616,
            2.4635,
            2.4653,
            2.4672,
            2.4691,
            2.471,
            2.4729,
            2.4747,
            2.4766,
            2.4785,
            2.4804,
            2.4823,
            2.4842,
            2.4861,
            2.488,
            2.4899,
            2.4918,
            2.4937,
            2.4956,
            2.4975,
            2.4994,
            2.5013,
            2.5032,
            2.5051,
            2.5071,
            2.509,
            2.5109,
            2.5128,
            2.5148,
            2.5167,
            2.5186,
            2.5205,
            2.5225,
            2.5244,
            2.5264,
            2.5283,
            2.5303,
            2.5322,
            2.5342,
            2.5361,
            2.5381,
            2.54,
            2.542,
            2.5439,
            2.5459,
            2.5479,
            2.5498,
            2.5518,
            2.5538,
            2.5557,
            2.5577,
            2.5597,
            2.5617,
            2.5637,
            2.5657,
            2.5676,
            2.5696,
            2.5716,
            2.5736,
            2.5756,
            2.5776,
            2.5796,
            2.5816,
            2.5836,
            2.5857,
            2.5877,
            2.5897,
            2.5917,
            2.5937,
            2.5957,
            2.5978,
            2.5998,
            2.6018,
            2.6038,
            2.6059,
            2.6079,
            2.61,
            2.612,
            2.614,
            2.6161,
            2.6181,
            2.6202,
            2.6222,
            2.6243,
            2.6263,
            2.6284,
            2.6305,
            2.6325,
            2.6346,
            2.6367,
            2.6387,
            2.6408,
            2.6429,
            2.645,
            2.6471,
            2.6491,
            2.6512,
            2.6533,
            2.6554,
            2.6575,
            2.6596,
            2.6617,
            2.6638,
            2.6659,
            2.668,
            2.6701,
            2.6722,
            2.6743,
            2.6765,
            2.6786,
            2.6807,
            2.6828,
            2.685,
            2.6871,
            2.6892,
            2.6913,
            2.6935,
            2.6956,
            2.6978,
            2.6999,
            2.7021,
            2.7042,
            2.7064,
            2.7085,
            2.7107,
            2.7128,
            2.715,
            2.7172,
            2.7193,
            2.7215,
            2.7237,
            2.7258,
            2.728,
            2.7302,
            2.7324,
            2.7346,
            2.7368,
            2.739,
            2.7412,
            2.7433,
            2.7455,
            2.7477,
            2.75,
            2.7522,
            2.7544,
            2.7566,
            2.7588,
            2.761,
            2.7632,
            2.7655,
            2.7677,
            2.7699,
            2.7721,
            2.7744,
            2.7766,
            2.7789,
            2.7811,
            2.7833,
            2.7856,
            2.7878,
            2.7901,
            2.7924,
            2.7946,
            2.7969,
            2.7991,
            2.8014,
            2.8037,
            2.8059,
            2.8082,
            2.8105,
            2.8128,
            2.8151,
            2.8173,
            2.8196,
            2.8219,
            2.8242,
            2.8265,
            2.8288,
            2.8311,
            2.8334,
            2.8357,
            2.8381,
            2.8404,
            2.8427,
            2.845,
            2.8473,
            2.8497,
            2.852,
            2.8543,
            2.8566,
            2.859,
            2.8613,
            2.8637,
            2.866,
            2.8684,
            2.8707,
            2.8731,
            2.8754,
            2.8778,
            2.8801,
            2.8825,
            2.8849,
            2.8873,
            2.8896,
            2.892,
            2.8944,
            2.8968,
            2.8992,
            2.9015,
            2.9039,
            2.9063,
            2.9087,
            2.9111,
            2.9135,
            2.9159,
            2.9184,
            2.9208,
            2.9232,
            2.9256,
            2.928,
            2.9305,
            2.9329,
            2.9353,
            2.9378,
            2.9402,
            2.9426,
            2.9451,
            2.9475,
            2.95,
            2.9524,
            2.9549,
            2.9573,
            2.9598,
            2.9623,
            2.9647,
            2.9672,
            2.9697,
            2.9722,
            2.9746,
            2.9771,
            2.9796,
            2.9821,
            2.9846,
            2.9871,
            2.9896,
            2.9921,
            2.9946,
            2.9971,
            2.9996,
            3.0021,
            3.0046,
            3.0072,
            3.0097,
            3.0122,
            3.0148,
            3.0173,
            3.0198,
            3.0224,
            3.0249,
            3.0275,
            3.03,
            3.0326,
            3.0351,
            3.0377,
            3.0402,
            3.0428,
            3.0454,
            3.048,
            3.0505,
            3.0531,
            3.0557,
            3.0583,
            3.0609,
            3.0635,
            3.0661,
            3.0687,
            3.0713,
            3.0739,
            3.0765,
            3.0791,
            3.0817,
            3.0843,
            3.0869,
            3.0896,
            3.0922,
            3.0948,
            3.0975,
            3.1001,
            3.1027,
            3.1054,
            3.108,
            3.1107,
            3.1134,
            3.116,
            3.1187,
            3.1213,
            3.124,
            3.1267,
            3.1294,
            3.132,
            3.1347,
            3.1374,
            3.1401,
            3.1428,
            3.1455,
            3.1482,
            3.1509,
            3.1536,
            3.1563,
            3.159,
            3.1618,
            3.1645,
            3.1672,
            3.1699,
            3.1727,
            3.1754,
            3.1781,
            3.1809,
            3.1836,
            3.1864,
            3.1891,
            3.1919,
            3.1947,
            3.1974,
            3.2002,
            3.203,
            3.2057,
            3.2085,
            3.2113,
            3.2141,
            3.2169,
            3.2197,
            3.2225,
            3.2253,
            3.2281,
            3.2309,
            3.2337,
            3.2365,
            3.2393,
            3.2422,
            3.245,
            3.2478,
            3.2506,
            3.2535,
            3.2563,
            3.2592,
            3.262,
            3.2649,
            3.2677,
            3.2706,
            3.2735,
            3.2763,
            3.2792,
            3.2821,
            3.285,
            3.2878,
            3.2907,
            3.2936,
            3.2965,
            3.2994,
            3.3023,
            3.3052,
            3.3081,
            3.311,
            3.314,
            3.3169,
            3.3198,
            3.3227,
            3.3257,
            3.3286,
            3.3315,
            3.3345,
            3.3374,
            3.3404,
            3.3433,
            3.3463,
            3.3493,
            3.3522,
            3.3552,
            3.3582,
            3.3612,
            3.3642,
            3.3671,
            3.3701,
            3.3731,
            3.3761,
            3.3791,
            3.3821,
            3.3852,
            3.3882,
            3.3912,
            3.3942,
            3.3972,
            3.4003,
            3.4033,
            3.4064,
            3.4094,
            3.4124,
            3.4155,
            3.4186,
            3.4216,
            3.4247,
            3.4278,
            3.4308,
            3.4339,
            3.437,
            3.4401,
            3.4432,
            3.4463,
            3.4494,
            3.4525,
            3.4556,
            3.4587,
            3.4618,
            3.4649,
            3.468,
            3.4712,
            3.4743,
            3.4774,
            3.4806,
            3.4837,
            3.4869,
            3.49,
            3.4932,
            3.4963,
            3.4995,
            3.5027,
            3.5059,
            3.509,
            3.5122,
            3.5154,
            3.5186,
            3.5218,
            3.525,
            3.5282,
            3.5314,
            3.5346,
            3.5378,
            3.5411,
            3.5443,
            3.5475,
            3.5508,
            3.554,
            3.5572,
            3.5605,
            3.5638,
            3.567,
            3.5703,
            3.5735,
            3.5768,
            3.5801,
            3.5834,
            3.5867,
            3.5899,
            3.5932,
            3.5965,
            3.5998,
            3.6032,
            3.6065,
            3.6098,
            3.6131,
            3.6164,
            3.6198,
            3.6231,
            3.6264,
            3.6298,
            3.6331,
            3.6365,
            3.6399,
            3.6432,
            3.6466,
            3.65,
            3.6533,
            3.6567,
            3.6601,
            3.6635,
            3.6669,
            3.6703,
            3.6737,
            3.6771,
            3.6805,
            3.6839,
            3.6874,
            3.6908,
            3.6942,
            3.6977,
            3.7011,
            3.7046,
            3.708,
            3.7115,
            3.715,
            3.7184,
            3.7219,
            3.7254,
            3.7289,
            3.7323,
            3.7358,
            3.7393,
            3.7428,
            3.7463,
            3.7499,
            3.7534,
            3.7569,
            3.7604,
            3.764,
            3.7675,
            3.771,
            3.7746,
            3.7781,
            3.7817,
            3.7853,
            3.7888,
            3.7924,
            3.796,
            3.7996,
            3.8032,
            3.8067,
            3.8103,
            3.8139,
            3.8176,
            3.8212,
            3.8248,
            3.8284,
            3.832,
            3.8357,
            3.8393,
            3.843,
            3.8466,
            3.8503,
            3.8539,
            3.8576,
            3.8613,
            3.8649,
            3.8686,
            3.8723,
            3.876,
            3.8797,
            3.8834,
            3.8871,
            3.8908,
            3.8945,
            3.8983,
            3.902,
            3.9057,
            3.9095,
            3.9132,
            3.917,
            3.9207,
            3.9245,
            3.9282,
            3.932,
            3.9358,
            3.9396,
            3.9434,
            3.9472,
            3.951,
            3.9548,
            3.9586,
            3.9624,
            3.9662,
            3.97,
            3.9739,
            3.9777,
            3.9816,
            3.9854,
            3.9893,
            3.9931,
            3.997,
            4.0009,
            4.0047,
            4.0086,
            4.0125,
            4.0164,
            4.0203,
            4.0242,
            4.0281,
            4.032,
            4.036,
            4.0399,
            4.0438,
            4.0478,
            4.0517,
            4.0557,
            4.0596,
            4.0636,
            4.0676,
            4.0715,
            4.0755,
            4.0795,
            4.0835,
            4.0875,
            4.0915,
            4.0955,
            4.0995,
            4.1036,
            4.1076,
            4.1116,
            4.1157,
            4.1197,
            4.1238,
            4.1278,
            4.1319,
            4.136,
            4.14,
            4.1441,
            4.1482,
            4.1523,
            4.1564,
            4.1605,
            4.1646,
            4.1687,
            4.1729,
            4.177,
            4.1811,
            4.1853,
            4.1894,
            4.1936,
            4.1977,
            4.2019,
            4.2061,
            4.2103,
            4.2144,
            4.2186,
            4.2228,
            4.227,
            4.2313,
            4.2355,
            4.2397,
            4.2439,
            4.2482,
            4.2524,
            4.2567,
            4.2609,
            4.2652,
            4.2695,
            4.2737,
            4.278,
            4.2823,
            4.2866,
            4.2909,
            4.2952,
            4.2995,
            4.3038,
            4.3082,
            4.3125,
            4.3168,
            4.3212,
            4.3255,
            4.3299,
            4.3343,
            4.3386,
            4.343,
            4.3474,
            4.3518,
            4.3562,
            4.3606,
            4.365,
            4.3694,
            4.3739,
            4.3783,
            4.3827,
            4.3872,
            4.3917,
            4.3961,
            4.4006,
            4.4051,
            4.4095,
            4.414,
            4.4185,
            4.423,
            4.4275,
            4.432,
            4.4366,
            4.4411,
            4.4456,
            4.4502,
            4.4547,
            4.4593,
            4.4639,
            4.4684,
            4.473,
            4.4776,
            4.4822,
            4.4868,
            4.4914,
            4.496,
            4.5006,
            4.5053,
            4.5099,
            4.5145,
            4.5192,
            4.5238,
            4.5285,
            4.5332,
            4.5379,
            4.5425,
            4.5472,
            4.5519,
            4.5567,
            4.5614,
            4.5661,
            4.5708,
            4.5756,
            4.5803,
            4.5851,
            4.5898,
            4.5946,
            4.5994,
            4.6041,
            4.6089,
            4.6137,
            4.6185,
            4.6233,
            4.6282,
            4.633,
            4.6378,
            4.6427,
            4.6475,
            4.6524,
            4.6572,
            4.6621,
            4.667,
            4.6719,
            4.6768,
            4.6817,
            4.6866,
            4.6915,
            4.6964,
            4.7014,
            4.7063,
            4.7113,
            4.7162,
            4.7212,
            4.7262,
            4.7311,
            4.7361,
            4.7411,
            4.7461,
            4.7512,
            4.7562,
            4.7612,
            4.7662,
            4.7713,
            4.7763,
            4.7814,
            4.7865,
            4.7916,
            4.7966,
            4.8017,
            4.8068,
            4.8119,
            4.8171,
            4.8222,
            4.8273,
            4.8325,
            4.8376,
            4.8428,
            4.8479,
            4.8531,
            4.8583,
            4.8635,
            4.8687,
            4.8739,
            4.8791,
            4.8844,
            4.8896,
            4.8948,
            4.9001,
            4.9053,
            4.9106,
            4.9159,
            4.9212,
            4.9265,
            4.9318,
            4.9371,
            4.9424,
            4.9477,
            4.9531,
            4.9584,
            4.9638,
            4.9691,
            4.9745,
            4.9799,
            4.9853,
            4.9907,
            4.9961,
            5.0015,
            5.0069,
            5.0124,
            5.0178,
            5.0233,
            5.0287,
            5.0342,
            5.0397,
            5.0452,
            5.0506,
            5.0562,
            5.0617,
            5.0672,
            5.0727,
            5.0783,
            5.0838,
            5.0894,
            5.0949,
            5.1005,
            5.1061,
            5.1117,
            5.1173,
            5.1229,
            5.1286,
            5.1342,
            5.1398,
            5.1455,
            5.1511,
            5.1568,
            5.1625,
            5.1682,
            5.1739,
            5.1796,
            5.1853,
            5.191,
            5.1968,
            5.2025,
            5.2083,
            5.214,
            5.2198,
            5.2256,
            5.2314,
            5.2372,
            5.243,
            5.2488,
            5.2547,
            5.2605,
            5.2664,
            5.2722,
            5.2781,
            5.284,
            5.2899,
            5.2958,
            5.3017,
            5.3076,
            5.3135,
            5.3195,
            5.3254,
            5.3314,
            5.3374,
            5.3434,
            5.3493,
            5.3554,
            5.3614,
            5.3674,
            5.3734,
            5.3795,
            5.3855,
            5.3916,
            5.3977,
            5.4037,
            5.4098,
            5.4159,
            5.4221,
            5.4282,
            5.4343,
            5.4405,
            5.4466,
            5.4528,
            5.459,
            5.4651,
            5.4713,
            5.4776,
            5.4838,
            5.49,
            5.4963,
            5.5025,
            5.5088,
            5.515,
            5.5213,
            5.5276,
            5.5339,
            5.5402,
            5.5466,
            5.5529,
            5.5593,
            5.5656,
            5.572,
            5.5784,
            5.5848,
            5.5912,
            5.5976,
            5.604,
            5.6104,
            5.6169,
            5.6234,
            5.6298,
            5.6363,
            5.6428,
            5.6493,
            5.6558,
            5.6624,
            5.6689,
            5.6754,
            5.682,
            5.6886,
            5.6952,
            5.7018,
            5.7084,
            5.715,
            5.7216,
            5.7283,
            5.7349,
            5.7416,
            5.7482,
            5.7549,
            5.7616,
            5.7683,
            5.7751,
            5.7818,
            5.7886,
            5.7953,
            5.8021,
            5.8089,
            5.8157,
            5.8225,
            5.8293,
            5.8361,
            5.843,
            5.8498,
            5.8567,
            5.8636,
            5.8705,
            5.8774,
            5.8843,
            5.8912,
            5.8981,
            5.9051,
            5.9121,
            5.919,
            5.926,
            5.933,
            5.94,
            5.9471,
            5.9541,
            5.9612,
            5.9682,
            5.9753,
            5.9824,
            5.9895,
            5.9966,
            6.0037,
            6.0109,
            6.018,
            6.0252,
            6.0324,
            6.0396,
            6.0468,
            6.054,
            6.0612,
            6.0685,
            6.0757,
            6.083,
            6.0903,
            6.0976,
            6.1049,
            6.1122,
            6.1195,
            6.1269,
            6.1343,
            6.1416,
            6.149,
            6.1564,
            6.1638,
            6.1713,
            6.1787,
            6.1862,
            6.1936,
            6.2011,
            6.2086,
            6.2161,
            6.2237,
            6.2312,
            6.2387,
            6.2463,
            6.2539,
            6.2615,
            6.2691,
            6.2767,
            6.2844,
            6.292,
            6.2997,
            6.3073,
            6.315,
            6.3227,
            6.3305,
            6.3382,
            6.3459,
            6.3537,
            6.3615,
            6.3693,
            6.3771,
            6.3849,
            6.3927,
            6.4006,
            6.4084,
            6.4163,
            6.4242,
            6.4321,
            6.44,
            6.448,
            6.4559,
            6.4639,
            6.4719,
            6.4799,
            6.4879,
            6.4959,
            6.5039,
            6.512,
            6.5201,
            6.5282,
            6.5363,
            6.5444,
            6.5525,
            6.5606,
            6.5688,
            6.577,
            6.5852,
            6.5934,
            6.6016,
            6.6098,
            6.6181,
            6.6264,
            6.6347,
            6.643,
            6.6513,
            6.6596,
            6.6679,
            6.6763,
            6.6847,
            6.6931,
            6.7015,
            6.7099,
            6.7184,
            6.7268,
            6.7353,
            6.7438,
            6.7523,
            6.7608,
            6.7694,
            6.7779,
            6.7865,
            6.7951,
            6.8037,
            6.8123,
            6.8209,
            6.8296,
            6.8383,
            6.8469,
            6.8556,
            6.8644,
            6.8731,
            6.8819,
            6.8906,
            6.8994,
            6.9082,
            6.917,
            6.9259,
            6.9347,
            6.9436,
            6.9525,
            6.9614,
            6.9703,
            6.9793,
            6.9882,
            6.9972,
            7.0062,
            7.0152,
            7.0242,
            7.0333,
            7.0423,
            7.0514,
            7.0605,
            7.0696,
            7.0788,
            7.0879,
            7.0971,
            7.1063,
            7.1155,
            7.1247,
            7.1339,
            7.1432,
            7.1525,
            7.1618,
            7.1711,
            7.1804,
            7.1898,
            7.1991,
            7.2085,
            7.2179,
            7.2273,
            7.2368,
            7.2462,
            7.2557,
            7.2652,
            7.2747,
            7.2843,
            7.2938,
            7.3034,
            7.313,
            7.3226,
            7.3322,
            7.3419,
            7.3515,
            7.3612,
            7.3709,
            7.3807,
            7.3904,
            7.4002,
            7.41,
            7.4198,
            7.4296,
            7.4394,
            7.4493,
            7.4592,
            7.4691,
            7.479,
            7.4889,
            7.4989,
            7.5089,
            7.5189,
            7.5289,
            7.5389,
            7.549,
            7.5591,
            7.5692,
            7.5793,
            7.5894,
            7.5996,
            7.6098,
            7.62,
            7.6302,
            7.6405,
            7.6507,
            7.661,
            7.6713,
            7.6817,
            7.692,
            7.7024,
            7.7128,
            7.7232,
            7.7336,
            7.7441,
            7.7545,
            7.765,
            7.7756,
            7.7861,
            7.7967,
            7.8073,
            7.8179,
            7.8285,
            7.8391,
            7.8498,
            7.8605,
            7.8712,
            7.882,
            7.8927,
            7.9035,
            7.9143,
            7.9251,
            7.936,
            7.9468,
            7.9577,
            7.9687,
            7.9796,
            7.9905,
            8.0015,
            8.0125,
            8.0236,
            8.0346,
            8.0457,
            8.0568,
            8.0679,
            8.0791,
            8.0902,
            8.1014,
            8.1126,
            8.1239,
            8.1351,
            8.1464,
            8.1577,
            8.169,
            8.1804,
            8.1918,
            8.2032,
            8.2146,
            8.2261,
            8.2375,
            8.249,
            8.2606,
            8.2721,
            8.2837,
            8.2953,
            8.3069,
            8.3185,
            8.3302,
            8.3419,
            8.3536,
            8.3654,
            8.3771,
            8.3889,
            8.4007,
            8.4126,
            8.4245,
            8.4364,
            8.4483,
            8.4602,
            8.4722,
            8.4842,
            8.4962,
            8.5083,
            8.5203,
            8.5324,
            8.5446,
            8.5567,
            8.5689,
            8.5811,
            8.5933,
            8.6056,
            8.6179,
            8.6302,
            8.6425,
            8.6549,
            8.6672,
            8.6797,
            8.6921,
            8.7046,
            8.7171,
            8.7296,
            8.7421,
            8.7547,
            8.7673,
            8.78,
            8.7926,
            8.8053,
            8.818,
            8.8308,
            8.8435,
            8.8563,
            8.8691,
            8.882,
            8.8949,
            8.9078,
            8.9207,
            8.9337,
            8.9467,
            8.9597,
            8.9728,
            8.9858,
            8.999,
            9.0121,
            9.0253,
            9.0385,
            9.0517,
            9.0649,
            9.0782,
            9.0915,
            9.1049,
            9.1182,
            9.1316,
            9.1451,
            9.1585,
            9.172,
            9.1855,
            9.1991,
            9.2127,
            9.2263,
            9.2399,
            9.2536,
            9.2673,
            9.281,
            9.2948,
            9.3086,
            9.3224,
            9.3363,
            9.3502,
            9.3641,
            9.378,
            9.392,
            9.406,
            9.4201,
            9.4342,
            9.4483,
            9.4624,
            9.4766,
            9.4908,
            9.505,
            9.5193,
            9.5336,
            9.5479,
            9.5623,
            9.5767,
            9.5911,
            9.6056,
            9.6201,
            9.6346,
            9.6492,
            9.6638,
            9.6784,
            9.693,
            9.7077,
            9.7225,
            9.7372,
            9.752,
            9.7669,
            9.7817,
            9.7966,
            9.8116,
            9.8265,
            9.8415,
            9.8566,
            9.8716,
            9.8867,
            9.9019,
            9.9171,
            9.9323,
            9.9475,
            9.9628,
            9.9781,
            9.9935,
            10.009,
            10.024,
            10.04,
            10.055,
            10.071,
            10.086,
            10.102,
            10.118,
            10.133,
            10.149,
            10.165,
            10.181,
            10.196,
            10.212,
            10.228,
            10.244,
            10.26,
            10.276,
            10.292,
            10.308,
            10.324,
            10.34,
            10.357,
            10.373,
            10.389,
            10.405,
            10.422,
            10.438,
            10.455,
            10.471,
            10.488,
            10.504,
            10.521,
            10.537,
            10.554,
            10.571,
            10.588,
            10.604,
            10.621,
            10.638,
            10.655,
            10.672,
            10.689,
            10.706,
            10.723,
            10.74,
            10.757,
            10.774,
            10.792,
            10.809,
            10.826,
            10.844,
            10.861,
            10.879,
            10.896,
            10.914,
            10.931,
            10.949,
            10.966,
            10.984,
            11.002,
            11.02,
            11.037,
            11.055,
            11.073,
            11.091,
            11.109,
            11.127,
            11.145,
            11.164,
            11.182,
            11.2,
            11.218,
            11.237,
            11.255,
            11.273,
            11.292,
            11.31,
            11.329,
            11.347,
            11.366,
            11.385,
            11.403,
            11.422,
            11.441,
            11.46,
            11.479,
            11.498,
            11.517,
            11.536,
            11.555,
            11.574,
            11.593,
            11.613,
            11.632,
            11.651,
            11.671,
            11.69,
            11.71,
            11.729,
            11.749,
            11.768,
            11.788,
            11.808,
            11.828,
            11.848,
            11.867,
            11.887,
            11.907,
            11.927,
            11.947,
            11.968,
            11.988,
            12.008,
            12.028,
            12.049,
            12.069,
            12.09,
            12.11,
            12.131,
            12.151,
            12.172,
            12.193,
            12.213,
            12.234,
            12.255,
            12.276,
            12.297,
            12.318,
            12.339,
            12.36,
            12.382,
            12.403,
            12.424,
            12.446,
            12.467,
            12.489,
            12.51,
            12.532,
            12.553,
            12.575,
            12.597,
            12.619,
            12.641,
            12.662,
            12.684,
            12.706,
            12.729,
            12.751,
            12.773,
            12.795,
            12.818,
            12.84,
            12.863,
            12.885,
            12.908,
            12.93,
            12.953,
            12.976,
            12.999,
            13.021,
            13.044,
            13.067,
            13.09,
            13.114,
            13.137,
            13.16,
            13.183,
            13.207,
            13.23,
            13.254,
            13.277,
            13.301,
            13.325,
            13.348,
            13.372,
            13.396,
            13.42,
            13.444,
            13.468,
            13.492,
            13.516,
            13.541,
            13.565,
            13.589,
            13.614,
            13.639,
            13.663,
            13.688,
            13.713,
            13.737,
            13.762,
            13.787,
            13.812,
            13.837,
            13.862,
            13.888,
            13.913,
            13.938,
            13.964,
            13.989,
            14.015,
            14.04,
            14.066,
            14.092,
            14.118,
            14.144,
            14.17,
            14.196,
            14.222,
            14.248,
            14.274,
            14.301,
            14.327,
            14.354,
            14.38,
            14.407,
            14.434,
            14.461,
            14.487,
            14.514,
            14.541,
            14.569,
            14.596,
            14.623,
            14.65,
            14.678,
            14.705,
            14.733,
            14.761,
            14.788,
            14.816,
            14.844,
            14.872,
            14.9,
            14.928,
            14.956,
            14.985,
            15.013,
            15.041,
            15.07,
            15.099,
            15.127,
            15.156,
            15.185,
            15.214,
            15.243,
            15.272,
            15.301,
            15.331,
            15.36,
            15.389,
            15.419,
            15.449,
            15.478,
            15.508,
            15.538,
            15.568,
            15.598,
            15.628,
            15.658,
            15.689,
            15.719,
            15.75,
            15.78,
            15.811,
            15.842,
            15.873,
            15.904,
            15.935,
            15.966,
            15.997,
            16.028,
            16.06,
            16.091,
            16.123,
            16.154,
            16.186,
            16.218,
            16.25,
            16.282,
            16.314,
            16.347,
            16.379,
            16.411,
            16.444,
            16.477,
            16.509,
            16.542,
            16.575,
            16.608,
            16.641,
            16.675,
            16.708,
            16.742,
            16.775,
            16.809,
            16.843,
            16.876,
            16.91,
            16.944,
            16.979,
            17.013,
            17.047,
            17.082,
            17.116,
            17.151,
            17.186,
            17.221,
            17.256,
            17.291,
            17.326,
            17.362,
            17.397,
            17.433,
            17.468,
            17.504,
            17.54,
            17.576,
            17.612,
            17.648,
            17.685,
            17.721,
            17.758,
            17.794,
            17.831,
            17.868,
            17.905,
            17.942,
            17.98,
            18.017,
            18.054,
            18.092,
            18.13,
            18.168,
            18.206,
            18.244,
            18.282,
            18.32,
            18.359,
            18.397,
            18.436,
            18.475,
            18.514,
            18.553,
            18.592,
            18.631,
            18.671,
            18.71,
            18.75,
            18.79,
            18.83,
            18.87,
            18.91,
            18.951,
            18.991,
            19.032,
            19.073,
            19.113,
            19.154,
            19.196,
            19.237,
            19.278,
            19.32,
            19.362,
            19.403,
            19.445,
            19.487,
            19.53,
            19.572,
            19.615,
            19.657,
            19.7,
            19.743,
            19.786,
            19.829,
            19.873,
            19.916,
            19.96,
            20.004,
            20.048,
            20.092,
            20.136,
            20.18,
            20.225,
            20.27,
            20.314,
            20.359,
            20.404,
            20.45,
            20.495,
            20.541,
            20.587,
            20.632,
            20.679,
            20.725,
            20.771,
            20.818,
            20.864,
            20.911,
            20.958,
            21.005,
            21.053,
            21.1,
            21.148,
            21.196,
            21.244,
            21.292,
            21.34,
            21.389,
            21.437,
            21.486,
            21.535,
            21.584,
            21.633,
            21.683,
            21.733,
            21.783,
            21.833,
            21.883,
            21.933,
            21.984,
            22.034,
            22.085,
            22.136,
            22.188,
            22.239,
            22.291,
            22.342,
            22.394,
            22.447,
            22.499,
            22.551,
            22.604,
            22.657,
            22.71,
            22.763,
            22.817,
            22.871,
            22.924,
            22.978,
            23.033,
            23.087,
            23.142,
            23.197,
            23.252,
            23.307,
            23.362,
            23.418,
            23.474,
            23.53,
            23.586,
            23.642,
            23.699,
            23.756,
            23.813,
            23.87,
            23.928,
            23.985,
            24.043,
            24.101,
            24.16,
            24.218,
            24.277,
            24.336,
            24.395,
            24.454,
            24.514,
            24.574,
            24.634,
            24.694,
            24.755,
            24.816,
            24.877,
            24.938,
            24.999,
            25.061,
            25.123,
            25.185,
            25.247,
            25.31,
            25.373,
            25.436,
            25.499,
            25.562,
            25.626,
            25.69,
            25.755,
            25.819,
            25.884,
            25.949,
            26.014,
            26.08,
            26.145,
            26.211,
            26.278,
            26.344,
            26.411,
            26.478,
            26.545,
            26.613,
            26.681,
            26.749,
            26.817,
            26.886,
            26.954,
            27.024,
            27.093,
            27.163,
            27.233,
            27.303,
            27.373,
            27.444,
            27.515,
            27.587,
            27.658,
            27.73,
            27.802,
            27.875,
            27.947,
            28.021,
            28.094,
            28.168,
            28.241,
            28.316,
            28.39,
            28.465,
            28.54,
            28.616,
            28.691,
            28.767,
            28.844,
            28.92,
            28.997,
            29.075,
            29.152,
            29.23,
            29.308,
            29.387,
            29.466,
            29.545,
            29.624,
            29.704,
            29.784,
            29.865,
            29.946,
            30.027,
            30.108,
            30.19,
            30.272,
            30.355,
            30.438,
            30.521,
            30.605,
            30.688,
            30.773,
            30.857,
            30.942,
            31.028,
            31.113,
            31.199,
            31.286,
            31.372,
            31.46,
            31.547,
            31.635,
            31.723,
            31.812,
            31.901,
            31.99
          ],
          [
            2.7,
            2.67,
            2.7,
            2.68,
            2.89,
            2.77,
            2.86,
            2.83,
            3.18,
            2.96,
            3.25,
            3.97,
            3.77,
            4.1,
            4.37,
            4.78,
            4.48,
            4.56,
            4.58,
            3.88,
            4.15,
            3.86,
            3.84,
            3.4,
            3.28,
            3.07,
            3.21,
            3.0,
            2.82,
            2.78,
            2.73,
            2.73,
            2.7,
            2.63,
            2.55,
            2.46,
            2.74,
            2.52,
            2.56,
            2.56,
            2.56,
            2.54,
            2.52,
            2.45,
            2.39,
            2.51,
            2.46,
            2.48,
            2.52,
            2.51,
            2.54,
            2.43,
            2.52,
            2.43,
            2.56,
            2.52,
            2.36,
            2.47,
            2.53,
            2.61,
            2.42,
            2.55,
            2.51,
            2.49,
            2.57,
            2.6,
            2.72,
            2.72,
            2.84,
            3.04,
            3.07,
            3.46,
            3.64,
            3.44,
            3.15,
            3.13,
            2.9,
            2.62,
            2.81,
            2.57,
            2.43,
            2.43,
            2.46,
            2.48,
            2.5,
            2.51,
            2.44,
            2.36,
            2.54,
            2.48,
            2.41,
            2.54,
            2.47,
            2.46,
            2.36,
            2.42,
            2.49,
            2.51,
            2.35,
            2.43,
            2.38,
            2.49,
            2.43,
            2.45,
            2.45,
            2.36,
            2.39,
            2.43,
            2.32,
            2.35,
            2.41,
            2.4,
            2.36,
            2.4,
            2.38,
            2.43,
            2.31,
            2.37,
            2.43,
            2.35,
            2.35,
            2.36,
            2.31,
            2.34,
            2.38,
            2.33,
            2.32,
            2.35,
            2.26,
            2.37,
            2.32,
            2.32,
            2.22,
            2.28,
            2.28,
            2.29,
            2.32,
            2.34,
            2.35,
            2.22,
            2.33,
            2.26,
            2.29,
            2.22,
            2.21,
            2.23,
            2.22,
            2.22,
            2.25,
            2.24,
            2.2,
            2.19,
            2.2,
            2.21,
            2.2,
            2.18,
            2.17,
            2.18,
            2.17,
            2.18,
            2.24,
            2.27,
            2.35,
            2.34,
            2.56,
            2.7,
            2.9,
            3.06,
            3.02,
            2.73,
            2.65,
            2.28,
            2.27,
            2.18,
            2.23,
            2.19,
            2.17,
            2.13,
            2.13,
            2.16,
            2.1,
            2.2,
            2.15,
            2.12,
            2.2,
            2.08,
            2.16,
            2.15,
            2.15,
            2.15,
            2.16,
            2.11,
            2.18,
            2.1,
            2.14,
            2.06,
            2.16,
            2.1,
            2.06,
            2.05,
            2.07,
            2.12,
            2.08,
            2.1,
            2.11,
            2.08,
            2.14,
            2.05,
            2.04,
            2.11,
            2.07,
            2.1,
            2.08,
            2.06,
            2.06,
            2.08,
            2.09,
            2.06,
            2.05,
            2.07,
            2.03,
            2.05,
            2.09,
            2.12,
            2.08,
            2.09,
            2.02,
            2.05,
            2.05,
            2.04,
            2.03,
            2.1,
            2.08,
            2.07,
            2.15,
            2.06,
            2.07,
            2.03,
            1.99,
            2.08,
            2.05,
            2.01,
            2.0,
            2.0,
            2.06,
            2.09,
            2.11,
            2.0,
            2.02,
            2.07,
            2.0,
            1.92,
            2.1,
            2.0,
            1.99,
            2.06,
            2.06,
            2.11,
            2.02,
            2.06,
            2.06,
            2.03,
            2.06,
            2.08,
            2.0,
            2.04,
            2.01,
            2.0,
            2.02,
            2.07,
            1.9,
            2.01,
            1.92,
            2.09,
            2.05,
            2.02,
            1.94,
            1.95,
            2.03,
            2.06,
            2.05,
            2.18,
            2.0,
            2.05,
            2.04,
            1.92,
            2.02,
            2.01,
            2.07,
            1.95,
            1.96,
            2.08,
            2.02,
            1.99,
            2.06,
            2.0,
            1.99,
            2.03,
            1.98,
            1.97,
            1.99,
            1.95,
            2.04,
            2.04,
            2.04,
            2.03,
            1.99,
            2.05,
            2.09,
            2.06,
            2.01,
            1.95,
            2.02,
            1.97,
            1.99,
            1.99,
            2.01,
            2.01,
            1.98,
            2.12,
            2.04,
            2.03,
            2.03,
            2.08,
            2.04,
            1.97,
            1.98,
            1.99,
            2.05,
            1.97,
            2.13,
            2.02,
            2.1,
            2.04,
            2.11,
            2.19,
            2.17,
            2.2,
            2.19,
            2.23,
            2.26,
            2.3,
            2.34,
            2.58,
            2.53,
            2.6,
            2.72,
            2.81,
            3.01,
            2.85,
            3.02,
            2.85,
            2.88,
            2.84,
            2.7,
            2.64,
            2.58,
            2.54,
            2.42,
            2.44,
            2.32,
            2.37,
            2.39,
            2.22,
            2.18,
            2.21,
            2.18,
            2.14,
            1.93,
            2.05,
            2.0,
            2.05,
            1.97,
            1.89,
            1.89,
            1.92,
            1.83,
            1.76,
            1.79,
            1.67,
            1.82,
            1.78,
            1.65,
            1.75,
            1.66,
            1.69,
            1.62,
            1.67,
            1.6,
            1.55,
            1.52,
            1.55,
            1.51,
            1.48,
            1.32,
            1.34,
            1.32,
            1.37,
            1.29,
            1.24,
            1.15,
            1.23,
            1.27,
            1.2,
            1.11,
            1.09,
            1.07,
            1.11,
            1.03,
            0.961,
            0.991,
            0.993,
            1.13,
            0.974,
            0.937,
            1.06,
            1.06,
            1.09,
            1.11,
            1.1,
            1.09,
            1.21,
            1.21,
            1.18,
            1.24,
            1.28,
            1.3,
            1.45,
            1.42,
            1.47,
            1.55,
            1.58,
            1.55,
            1.66,
            1.73,
            1.61,
            1.67,
            1.69,
            1.78,
            1.76,
            1.77,
            1.86,
            1.79,
            1.8,
            1.82,
            1.89,
            1.88,
            1.97,
            1.9,
            1.99,
            1.97,
            2.08,
            2.06,
            2.06,
            2.09,
            2.0,
            2.05,
            2.01,
            2.09,
            2.06,
            2.11,
            2.14,
            2.17,
            2.03,
            2.15,
            2.09,
            2.22,
            2.17,
            2.15,
            2.16,
            2.23,
            2.21,
            2.12,
            2.2,
            2.3,
            2.2,
            2.17,
            2.24,
            2.3,
            2.26,
            2.2,
            2.21,
            2.21,
            2.31,
            2.27,
            2.29,
            2.22,
            2.3,
            2.3,
            2.32,
            2.38,
            2.27,
            2.24,
            2.33,
            2.38,
            2.33,
            2.39,
            2.4,
            2.36,
            2.38,
            2.44,
            2.39,
            2.42,
            2.39,
            2.47,
            2.48,
            2.4,
            2.42,
            2.41,
            2.47,
            2.36,
            2.45,
            2.49,
            2.46,
            2.34,
            2.36,
            2.52,
            2.46,
            2.42,
            2.53,
            2.53,
            2.44,
            2.51,
            2.43,
            2.55,
            2.46,
            2.44,
            2.51,
            2.49,
            2.55,
            2.51,
            2.52,
            2.55,
            2.59,
            2.47,
            2.54,
            2.62,
            2.56,
            2.52,
            2.43,
            2.58,
            2.61,
            2.54,
            2.61,
            2.53,
            2.59,
            2.63,
            2.61,
            2.63,
            2.66,
            2.63,
            2.72,
            2.65,
            2.63,
            2.63,
            2.62,
            2.7,
            2.66,
            2.63,
            2.64,
            2.71,
            2.69,
            2.71,
            2.71,
            2.72,
            2.69,
            2.69,
            2.72,
            2.72,
            2.7,
            2.72,
            2.73,
            2.76,
            2.76,
            2.75,
            2.85,
            2.78,
            2.88,
            2.68,
            2.85,
            2.83,
            2.81,
            2.79,
            2.79,
            2.89,
            2.95,
            2.85,
            2.78,
            2.83,
            2.79,
            2.95,
            2.88,
            2.83,
            2.8,
            2.87,
            2.8,
            2.91,
            2.86,
            2.95,
            2.88,
            2.97,
            2.95,
            3.02,
            2.99,
            3.02,
            3.03,
            3.03,
            2.97,
            3.02,
            3.06,
            3.19,
            3.05,
            3.05,
            3.12,
            3.05,
            3.04,
            3.13,
            3.15,
            3.23,
            3.18,
            3.21,
            3.27,
            3.18,
            3.24,
            3.27,
            3.34,
            3.23,
            3.44,
            3.34,
            3.39,
            3.34,
            3.4,
            3.49,
            3.41,
            3.47,
            3.55,
            3.57,
            3.54,
            3.64,
            3.54,
            3.62,
            3.72,
            3.78,
            3.78,
            3.82,
            3.79,
            3.99,
            3.91,
            3.92,
            3.91,
            3.97,
            4.16,
            4.17,
            4.14,
            4.12,
            4.24,
            4.21,
            4.23,
            4.36,
            4.35,
            4.33,
            4.28,
            4.19,
            4.25,
            4.23,
            4.22,
            4.18,
            4.08,
            4.09,
            3.98,
            4.01,
            3.89,
            3.81,
            3.81,
            3.73,
            3.7,
            3.66,
            3.57,
            3.58,
            3.48,
            3.35,
            3.46,
            3.4,
            3.42,
            3.31,
            3.32,
            3.33,
            3.24,
            3.31,
            3.22,
            3.25,
            3.1,
            3.21,
            3.17,
            3.25,
            3.17,
            3.2,
            3.15,
            3.12,
            3.18,
            3.2,
            3.15,
            3.12,
            3.14,
            3.15,
            3.12,
            3.17,
            3.19,
            3.16,
            3.07,
            3.11,
            3.08,
            3.09,
            3.2,
            3.03,
            3.1,
            3.11,
            3.1,
            3.12,
            3.05,
            3.07,
            3.19,
            3.13,
            3.09,
            3.08,
            3.09,
            3.08,
            3.09,
            3.09,
            3.01,
            3.01,
            3.15,
            3.04,
            3.06,
            3.02,
            3.1,
            3.07,
            3.06,
            3.14,
            3.07,
            2.98,
            3.07,
            3.05,
            3.1,
            3.18,
            3.02,
            3.07,
            3.12,
            3.08,
            3.12,
            3.07,
            3.03,
            3.02,
            3.07,
            3.1,
            3.08,
            2.98,
            3.16,
            3.05,
            3.06,
            3.13,
            3.06,
            3.03,
            3.09,
            3.14,
            3.14,
            3.05,
            3.09,
            3.15,
            3.12,
            3.05,
            3.14,
            3.12,
            3.08,
            3.07,
            3.07,
            3.08,
            3.05,
            3.08,
            3.05,
            3.09,
            3.05,
            3.08,
            3.16,
            3.02,
            3.12,
            3.07,
            3.05,
            3.06,
            3.08,
            3.04,
            3.03,
            2.99,
            3.03,
            2.99,
            2.89,
            2.97,
            2.96,
            2.9,
            2.9,
            2.89,
            2.8,
            2.74,
            2.61,
            2.63,
            2.51,
            2.32,
            2.24,
            2.06,
            2.0,
            1.95,
            1.82,
            1.97,
            2.05,
            2.16,
            2.33,
            2.39,
            2.45,
            2.43,
            2.52,
            2.62,
            2.61,
            2.71,
            2.69,
            2.74,
            2.82,
            2.86,
            2.81,
            2.8,
            2.83,
            2.79,
            2.8,
            2.8,
            2.82,
            2.86,
            2.87,
            2.9,
            2.88,
            2.95,
            2.97,
            2.94,
            2.94,
            3.01,
            3.01,
            3.06,
            3.2,
            3.17,
            3.21,
            3.34,
            3.34,
            3.59,
            3.81,
            4.01,
            4.12,
            4.31,
            4.2,
            4.08,
            3.81,
            3.71,
            3.5,
            3.53,
            3.33,
            3.35,
            3.25,
            3.24,
            3.18,
            3.24,
            3.22,
            3.19,
            3.2,
            3.13,
            3.21,
            3.16,
            3.22,
            3.21,
            3.17,
            3.19,
            3.19,
            3.2,
            3.11,
            3.21,
            3.18,
            3.19,
            3.36,
            3.28,
            3.39,
            3.38,
            3.46,
            3.65,
            3.91,
            3.89,
            3.69,
            3.53,
            3.37,
            3.39,
            3.36,
            3.36,
            3.36,
            3.4,
            3.44,
            3.35,
            3.35,
            3.41,
            3.4,
            3.34,
            3.43,
            3.45,
            3.49,
            3.47,
            3.44,
            3.49,
            3.58,
            3.57,
            3.49,
            3.53,
            3.62,
            3.6,
            3.52,
            3.53,
            3.54,
            3.46,
            3.56,
            3.53,
            3.57,
            3.58,
            3.51,
            3.59,
            3.56,
            3.56,
            3.52,
            3.56,
            3.51,
            3.49,
            3.48,
            3.51,
            3.5,
            3.46,
            3.43,
            3.47,
            3.53,
            3.42,
            3.33,
            3.37,
            3.39,
            3.34,
            3.32,
            3.27,
            3.26,
            3.19,
            3.19,
            3.18,
            3.14,
            3.18,
            3.19,
            3.06,
            3.08,
            3.03,
            3.03,
            2.94,
            3.1,
            2.95,
            2.95,
            3.03,
            2.94,
            2.88,
            2.85,
            2.82,
            2.88,
            2.85,
            2.79,
            2.84,
            2.76,
            2.7,
            2.72,
            2.72,
            2.7,
            2.7,
            2.66,
            2.61,
            2.62,
            2.56,
            2.53,
            2.53,
            2.58,
            2.61,
            2.56,
            2.49,
            2.47,
            2.5,
            2.48,
            2.48,
            2.55,
            2.45,
            2.42,
            2.38,
            2.41,
            2.34,
            2.43,
            2.4,
            2.37,
            2.41,
            2.35,
            2.42,
            2.37,
            2.35,
            2.32,
            2.37,
            2.5,
            2.46,
            2.62,
            2.56,
            2.43,
            2.31,
            2.17,
            2.16,
            2.24,
            2.23,
            2.2,
            2.2,
            2.19,
            2.19,
            2.11,
            2.15,
            2.12,
            2.23,
            2.15,
            2.08,
            2.07,
            2.12,
            2.09,
            2.08,
            2.14,
            2.11,
            2.04,
            2.05,
            2.09,
            2.03,
            2.0,
            2.09,
            1.98,
            2.01,
            2.02,
            2.02,
            2.03,
            2.0,
            1.99,
            1.97,
            1.97,
            1.92,
            1.84,
            1.92,
            1.95,
            1.97,
            1.86,
            1.89,
            1.89,
            1.89,
            1.9,
            1.8,
            1.87,
            1.88,
            1.95,
            1.88,
            1.83,
            1.81,
            1.81,
            1.75,
            1.84,
            1.79,
            1.83,
            1.78,
            1.75,
            1.7,
            1.7,
            1.71,
            1.71,
            1.68,
            1.67,
            1.7,
            1.53,
            1.54,
            1.49,
            1.49,
            1.46,
            1.54,
            1.64,
            1.79,
            1.99,
            1.97,
            2.06,
            2.1,
            1.99,
            1.97,
            1.96,
            1.93,
            1.91,
            1.89,
            1.89,
            1.82,
            1.91,
            1.88,
            1.87,
            1.8,
            1.85,
            1.85,
            1.72,
            1.86,
            1.75,
            1.75,
            1.8,
            1.76,
            1.82,
            1.78,
            1.77,
            1.81,
            1.72,
            1.77,
            1.78,
            1.74,
            1.73,
            1.79,
            1.75,
            1.82,
            1.79,
            1.77,
            1.81,
            1.82,
            1.73,
            1.79,
            1.76,
            1.79,
            1.79,
            1.83,
            1.77,
            1.75,
            1.8,
            1.8,
            1.73,
            1.78,
            1.84,
            1.77,
            1.86,
            1.76,
            1.78,
            1.81,
            1.82,
            1.77,
            1.81,
            1.83,
            1.84,
            1.86,
            1.88,
            1.85,
            1.89,
            1.87,
            1.92,
            1.86,
            1.85,
            1.87,
            1.9,
            1.85,
            1.91,
            1.89,
            1.94,
            1.87,
            1.87,
            1.89,
            1.95,
            1.9,
            1.94,
            1.92,
            1.96,
            1.97,
            1.92,
            1.96,
            1.96,
            1.95,
            1.99,
            2.0,
            1.96,
            1.95,
            1.9,
            1.91,
            1.88,
            1.9,
            1.89,
            1.88,
            1.86,
            1.82,
            1.83,
            1.84,
            1.88,
            1.86,
            1.78,
            1.77,
            1.71,
            1.78,
            1.79,
            1.66,
            1.79,
            1.68,
            1.67,
            1.67,
            1.63,
            1.67,
            1.57,
            1.63,
            1.62,
            1.54,
            1.5,
            1.54,
            1.59,
            1.52,
            1.53,
            1.51,
            1.55,
            1.5,
            1.51,
            1.47,
            1.45,
            1.5,
            1.45,
            1.5,
            1.5,
            1.43,
            1.41,
            1.38,
            1.38,
            1.42,
            1.41,
            1.41,
            1.36,
            1.35,
            1.42,
            1.42,
            1.45,
            1.44,
            1.47,
            1.54,
            1.53,
            1.59,
            1.63,
            1.65,
            1.74,
            1.8,
            1.88,
            1.89,
            1.92,
            1.96,
            1.96,
            1.99,
            1.88,
            1.92,
            1.96,
            1.94,
            1.86,
            1.86,
            1.86,
            1.77,
            1.75,
            1.74,
            1.81,
            1.76,
            1.75,
            1.86,
            1.84,
            1.87,
            1.91,
            1.99,
            2.09,
            2.11,
            2.29,
            2.35,
            2.49,
            2.61,
            2.76,
            2.81,
            2.84,
            2.88,
            2.9,
            2.8,
            2.79,
            2.64,
            2.68,
            2.59,
            2.5,
            2.48,
            2.4,
            2.48,
            2.36,
            2.31,
            2.33,
            2.28,
            2.26,
            2.25,
            2.15,
            2.15,
            2.14,
            2.16,
            2.11,
            2.07,
            2.02,
            2.06,
            2.05,
            2.13,
            2.12,
            2.21,
            2.27,
            2.33,
            2.46,
            2.46,
            2.53,
            2.56,
            2.57,
            2.63,
            2.52,
            2.54,
            2.45,
            2.34,
            2.38,
            2.34,
            2.34,
            2.42,
            2.34,
            2.28,
            2.31,
            2.24,
            2.18,
            2.26,
            2.16,
            2.14,
            2.1,
            2.08,
            2.03,
            2.08,
            2.08,
            2.01,
            1.97,
            1.96,
            1.97,
            1.92,
            1.9,
            1.89,
            1.84,
            1.91,
            1.88,
            1.85,
            1.88,
            1.82,
            1.82,
            1.81,
            1.84,
            1.77,
            1.81,
            1.81,
            1.75,
            1.72,
            1.73,
            1.7,
            1.82,
            1.75,
            1.73,
            1.73,
            1.75,
            1.79,
            1.72,
            1.77,
            1.74,
            1.76,
            1.81,
            1.85,
            1.83,
            1.86,
            1.83,
            1.83,
            1.92,
            1.83,
            1.85,
            1.87,
            1.85,
            1.89,
            1.9,
            1.91,
            1.93,
            1.95,
            1.91,
            1.97,
            2.01,
            1.97,
            2.0,
            2.04,
            2.05,
            2.06,
            1.99,
            2.03,
            2.02,
            1.97,
            1.87,
            1.94,
            1.97,
            1.97,
            1.99,
            1.93,
            1.95,
            1.9,
            1.97,
            1.91,
            1.88,
            1.92,
            1.81,
            1.87,
            1.87,
            1.88,
            1.85,
            1.89,
            1.85,
            1.85,
            1.92,
            1.86,
            1.88,
            1.95,
            2.09,
            2.07,
            2.12,
            2.05,
            2.15,
            2.09,
            2.07,
            2.06,
            1.95,
            1.87,
            1.85,
            1.83,
            1.77,
            1.83,
            1.74,
            1.78,
            1.72,
            1.73,
            1.75,
            1.72,
            1.81,
            1.71,
            1.64,
            1.69,
            1.71,
            1.73,
            1.71,
            1.68,
            1.65,
            1.66,
            1.67,
            1.67,
            1.64,
            1.64,
            1.67,
            1.65,
            1.62,
            1.63,
            1.63,
            1.65,
            1.67,
            1.65,
            1.6,
            1.62,
            1.62,
            1.68,
            1.7,
            1.81,
            1.82,
            2.01,
            2.14,
            2.23,
            2.16,
            1.95,
            1.72,
            1.67,
            1.64,
            1.52,
            1.54,
            1.51,
            1.48,
            1.48,
            1.43,
            1.48,
            1.47,
            1.45,
            1.45,
            1.38,
            1.4,
            1.36,
            1.45,
            1.4,
            1.45,
            1.46,
            1.42,
            1.45,
            1.38,
            1.43,
            1.39,
            1.38,
            1.36,
            1.37,
            1.34,
            1.39,
            1.4,
            1.35,
            1.34,
            1.38,
            1.29,
            1.32,
            1.37,
            1.3,
            1.24,
            1.24,
            1.27,
            1.34,
            1.33,
            1.29,
            1.32,
            1.27,
            1.29,
            1.29,
            1.2,
            1.29,
            1.32,
            1.21,
            1.27,
            1.27,
            1.32,
            1.32,
            1.43,
            1.49,
            1.6,
            1.82,
            1.88,
            1.95,
            1.8,
            1.68,
            1.49,
            1.48,
            1.37,
            1.42,
            1.47,
            1.56,
            1.63,
            1.78,
            1.77,
            1.72,
            1.74,
            1.77,
            1.74,
            1.82,
            1.79,
            1.92,
            1.93,
            1.86,
            1.96,
            1.97,
            1.98,
            1.96,
            2.05,
            2.07,
            2.13,
            2.11,
            2.23,
            2.12,
            2.18,
            2.2,
            2.18,
            2.33,
            2.3,
            2.42,
            2.41,
            2.48,
            2.61,
            2.63,
            2.71,
            2.75,
            2.76,
            2.87,
            2.86,
            2.91,
            2.88,
            2.92,
            2.84,
            2.84,
            2.72,
            2.72,
            2.69,
            2.56,
            2.47,
            2.4,
            2.29,
            2.21,
            2.11,
            2.02,
            2.01,
            1.91,
            1.78,
            1.8,
            1.77,
            1.79,
            1.8,
            1.84,
            1.88,
            1.91,
            1.97,
            1.98,
            1.96,
            1.94,
            1.84,
            1.79,
            1.65,
            1.62,
            1.71,
            1.62,
            1.57,
            1.52,
            1.58,
            1.45,
            1.43,
            1.45,
            1.37,
            1.32,
            1.33,
            1.22,
            1.26,
            1.25,
            1.19,
            1.17,
            1.17,
            1.16,
            1.18,
            1.12,
            1.09,
            1.08,
            1.09,
            1.11,
            1.1,
            1.08,
            1.05,
            1.06,
            1.15,
            1.14,
            1.16,
            1.2,
            1.15,
            1.25,
            1.25,
            1.26,
            1.22,
            1.23,
            1.27,
            1.27,
            1.37,
            1.35,
            1.38,
            1.39,
            1.4,
            1.42,
            1.39,
            1.39,
            1.39,
            1.37,
            1.35,
            1.36,
            1.35,
            1.37,
            1.32,
            1.33,
            1.42,
            1.41,
            1.42,
            1.45,
            1.52,
            1.52,
            1.55,
            1.55,
            1.59,
            1.54,
            1.54,
            1.52,
            1.47,
            1.41,
            1.46,
            1.41,
            1.39,
            1.41,
            1.39,
            1.34,
            1.32,
            1.3,
            1.31,
            1.3,
            1.34,
            1.29,
            1.32,
            1.33,
            1.3,
            1.26,
            1.38,
            1.33,
            1.38,
            1.41,
            1.47,
            1.47,
            1.54,
            1.54,
            1.47,
            1.43,
            1.38,
            1.28,
            1.27,
            1.26,
            1.27,
            1.26,
            1.32,
            1.35,
            1.32,
            1.34,
            1.3,
            1.25,
            1.23,
            1.24,
            1.22,
            1.19,
            1.19,
            1.14,
            1.13,
            1.09,
            1.16,
            1.15,
            1.15,
            1.2,
            1.2,
            1.18,
            1.22,
            1.21,
            1.19,
            1.2,
            1.19,
            1.19,
            1.21,
            1.21,
            1.25,
            1.23,
            1.24,
            1.25,
            1.28,
            1.22,
            1.25,
            1.32,
            1.37,
            1.42,
            1.45,
            1.51,
            1.54,
            1.58,
            1.54,
            1.55,
            1.47,
            1.47,
            1.45,
            1.45,
            1.46,
            1.36,
            1.41,
            1.39,
            1.4,
            1.41,
            1.43,
            1.4,
            1.4,
            1.43,
            1.38,
            1.39,
            1.43,
            1.48,
            1.4,
            1.45,
            1.51,
            1.46,
            1.47,
            1.37,
            1.4,
            1.46,
            1.41,
            1.43,
            1.43,
            1.47,
            1.56,
            1.56,
            1.57,
            1.6,
            1.58,
            1.52,
            1.4,
            1.37,
            1.29,
            1.24,
            1.25,
            1.27,
            1.25,
            1.25,
            1.24,
            1.29,
            1.25,
            1.27,
            1.32,
            1.28,
            1.29,
            1.33,
            1.39,
            1.43,
            1.43,
            1.49,
            1.58,
            1.56,
            1.56,
            1.61,
            1.65,
            1.6,
            1.57,
            1.59,
            1.53,
            1.56,
            1.56,
            1.46,
            1.4,
            1.41,
            1.43,
            1.38,
            1.33,
            1.33,
            1.32,
            1.27,
            1.3,
            1.29,
            1.22,
            1.21,
            1.27,
            1.25,
            1.26,
            1.26,
            1.24,
            1.25,
            1.26,
            1.28,
            1.31,
            1.3,
            1.34,
            1.41,
            1.5,
            1.61,
            1.52,
            1.43,
            1.39,
            1.32,
            1.38,
            1.37,
            1.37,
            1.36,
            1.36,
            1.4,
            1.47,
            1.47,
            1.51,
            1.51,
            1.55,
            1.59,
            1.6,
            1.63,
            1.63,
            1.63,
            1.58,
            1.56,
            1.49,
            1.51,
            1.48,
            1.46,
            1.45,
            1.4,
            1.42,
            1.41,
            1.42,
            1.43,
            1.46,
            1.4,
            1.48,
            1.44,
            1.44,
            1.43,
            1.48,
            1.45,
            1.49,
            1.45,
            1.46,
            1.51,
            1.46,
            1.5,
            1.46,
            1.48,
            1.44,
            1.44,
            1.45,
            1.46,
            1.47,
            1.49,
            1.48,
            1.52,
            1.54,
            1.61,
            1.64,
            1.64,
            1.62,
            1.53,
            1.51,
            1.45,
            1.4,
            1.38,
            1.31,
            1.32,
            1.3,
            1.28,
            1.28,
            1.27,
            1.26,
            1.25,
            1.23,
            1.25,
            1.23,
            1.26,
            1.3,
            1.28,
            1.24,
            1.26,
            1.23,
            1.25,
            1.26,
            1.25,
            1.26,
            1.27,
            1.23,
            1.27,
            1.26,
            1.28,
            1.29,
            1.33,
            1.32,
            1.35,
            1.33,
            1.37,
            1.39,
            1.38,
            1.39,
            1.42,
            1.4,
            1.4,
            1.41,
            1.42,
            1.44,
            1.45,
            1.46,
            1.49,
            1.51,
            1.6,
            1.59,
            1.64,
            1.66,
            1.71,
            1.74,
            1.75,
            1.83,
            1.82,
            1.85,
            1.83,
            1.78,
            1.72,
            1.72,
            1.7,
            1.75,
            1.76,
            1.8,
            1.86,
            1.85,
            1.9,
            1.9,
            1.85,
            1.86,
            1.83,
            1.79,
            1.76,
            1.73,
            1.7,
            1.69,
            1.65,
            1.63,
            1.58,
            1.56,
            1.56,
            1.56,
            1.55,
            1.56,
            1.54,
            1.55,
            1.56,
            1.54,
            1.56,
            1.58,
            1.59,
            1.57,
            1.61,
            1.65,
            1.65,
            1.66,
            1.69,
            1.7,
            1.7,
            1.7,
            1.64,
            1.64,
            1.62,
            1.6,
            1.58,
            1.55,
            1.5,
            1.51,
            1.46,
            1.49,
            1.48,
            1.47,
            1.49,
            1.48,
            1.52,
            1.52,
            1.53,
            1.56,
            1.6,
            1.59,
            1.66,
            1.66,
            1.68,
            1.6,
            1.57,
            1.55,
            1.5,
            1.49,
            1.48,
            1.46,
            1.47,
            1.46,
            1.48,
            1.46,
            1.48,
            1.47,
            1.48,
            1.45,
            1.48,
            1.49,
            1.53,
            1.56,
            1.62,
            1.63,
            1.65,
            1.65,
            1.65,
            1.64,
            1.66,
            1.66,
            1.63,
            1.63,
            1.63,
            1.63,
            1.61,
            1.62,
            1.62,
            1.64,
            1.62,
            1.65,
            1.63,
            1.64,
            1.65,
            1.65,
            1.68,
            1.66,
            1.64,
            1.67,
            1.65,
            1.63,
            1.66,
            1.63,
            1.6,
            1.62,
            1.59,
            1.61,
            1.59,
            1.59,
            1.59,
            1.61,
            1.61,
            1.57,
            1.56,
            1.55,
            1.53,
            1.56,
            1.55,
            1.56,
            1.54,
            1.56,
            1.56,
            1.57,
            1.59,
            1.61,
            1.6,
            1.63,
            1.62,
            1.64,
            1.67,
            1.65,
            1.66,
            1.67,
            1.64,
            1.63,
            1.62,
            1.62,
            1.63,
            1.58,
            1.57,
            1.55,
            1.55,
            1.56,
            1.53,
            1.54,
            1.52,
            1.51,
            1.51,
            1.51,
            1.48,
            1.51,
            1.51,
            1.49,
            1.52,
            1.51,
            1.52,
            1.53,
            1.51,
            1.51,
            1.54,
            1.52,
            1.52,
            1.51,
            1.53,
            1.51,
            1.52,
            1.53,
            1.53,
            1.53,
            1.53,
            1.55,
            1.58,
            1.59,
            1.62,
            1.63,
            1.65,
            1.66,
            1.67,
            1.65,
            1.7,
            1.69,
            1.71,
            1.69,
            1.7,
            1.68,
            1.69,
            1.66,
            1.66,
            1.67,
            1.64,
            1.64,
            1.65,
            1.67,
            1.65,
            1.66,
            1.66,
            1.66,
            1.67,
            1.67,
            1.68,
            1.65,
            1.65,
            1.67,
            1.65,
            1.63,
            1.63,
            1.63,
            1.62,
            1.61,
            1.64,
            1.63,
            1.62,
            1.64,
            1.64,
            1.65,
            1.65,
            1.65,
            1.67,
            1.65,
            1.68,
            1.68,
            1.68,
            1.66,
            1.68,
            1.67,
            1.68,
            1.67,
            1.68,
            1.67,
            1.67,
            1.68,
            1.66,
            1.66,
            1.65,
            1.65,
            1.64,
            1.66,
            1.63,
            1.64,
            1.65,
            1.64,
            1.61,
            1.62,
            1.61,
            1.6,
            1.61,
            1.62,
            1.6,
            1.6,
            1.62,
            1.61,
            1.62,
            1.62,
            1.61,
            1.65,
            1.65,
            1.65,
            1.63,
            1.66,
            1.66,
            1.68,
            1.68,
            1.68,
            1.67,
            1.67,
            1.66,
            1.65,
            1.66,
            1.65,
            1.65,
            1.64,
            1.62,
            1.63,
            1.62,
            1.61,
            1.61,
            1.6,
            1.63,
            1.63,
            1.61,
            1.59,
            1.6,
            1.6,
            1.61,
            1.61,
            1.6,
            1.61,
            1.61,
            1.61,
            1.65,
            1.66,
            1.66,
            1.65,
            1.68,
            1.65,
            1.67,
            1.67,
            1.66,
            1.69,
            1.68,
            1.66,
            1.68,
            1.66,
            1.67,
            1.69,
            1.68,
            1.67,
            1.67,
            1.67,
            1.66,
            1.67,
            1.66,
            1.65,
            1.67,
            1.67,
            1.67,
            1.66,
            1.67,
            1.65,
            1.67,
            1.65,
            1.67,
            1.66,
            1.67,
            1.65,
            1.67,
            1.67,
            1.66,
            1.65,
            1.67,
            1.67,
            1.69,
            1.68,
            1.69,
            1.7,
            1.69,
            1.68,
            1.7,
            1.69,
            1.69,
            1.68,
            1.69,
            1.69,
            1.67,
            1.68,
            1.67,
            1.68,
            1.67,
            1.68,
            1.68,
            1.67,
            1.69,
            1.69,
            1.68,
            1.7,
            1.72,
            1.69,
            1.7,
            1.72,
            1.71,
            1.7,
            1.7,
            1.69,
            1.72,
            1.71,
            1.72,
            1.73,
            1.72,
            1.74,
            1.75,
            1.73,
            1.73,
            1.75,
            1.74,
            1.75,
            1.74,
            1.76,
            1.76,
            1.75,
            1.73,
            1.75,
            1.75,
            1.74,
            1.75,
            1.76,
            1.76,
            1.75,
            1.74,
            1.75,
            1.76,
            1.76,
            1.75,
            1.73,
            1.74,
            1.74,
            1.73,
            1.73,
            1.74,
            1.73,
            1.73,
            1.7,
            1.74,
            1.74,
            1.74,
            1.73,
            1.76,
            1.73,
            1.75,
            1.75,
            1.75,
            1.76,
            1.74,
            1.72,
            1.75,
            1.74,
            1.74,
            1.74,
            1.74,
            1.77,
            1.74,
            1.74,
            1.72,
            1.72,
            1.72,
            1.73,
            1.74,
            1.71,
            1.72,
            1.7,
            1.71,
            1.72,
            1.73,
            1.71,
            1.68,
            1.71,
            1.73,
            1.72,
            1.69,
            1.71,
            1.71,
            1.72,
            1.72,
            1.72,
            1.66,
            1.7,
            1.69,
            1.69,
            1.68,
            1.69,
            1.7,
            1.7,
            1.67,
            1.65,
            1.68,
            1.66,
            1.68,
            1.68,
            1.7,
            1.69,
            1.65,
            1.64,
            1.64,
            1.67,
            1.66,
            1.68,
            1.64,
            1.63,
            1.63,
            1.62,
            1.65,
            1.64,
            1.65,
            1.63,
            1.65,
            1.67,
            1.64,
            1.65,
            1.65,
            1.64,
            1.65,
            1.62,
            1.64,
            1.64,
            1.65,
            1.63,
            1.63,
            1.66,
            1.63,
            1.66,
            1.62,
            1.61,
            1.6,
            1.62,
            1.6,
            1.63,
            1.62,
            1.64,
            1.61,
            1.61,
            1.62,
            1.6,
            1.64,
            1.63,
            1.59,
            1.6,
            1.59,
            1.61,
            1.62,
            1.63,
            1.65,
            1.6,
            1.59,
            1.57,
            1.62,
            1.61,
            1.6,
            1.62,
            1.64,
            1.6,
            1.61,
            1.6,
            1.6,
            1.64,
            1.6,
            1.61,
            1.64,
            1.58,
            1.56,
            1.61,
            1.57,
            1.57,
            1.6,
            1.63,
            1.63,
            1.6,
            1.58,
            1.6,
            1.56,
            1.59,
            1.55,
            1.57,
            1.57,
            1.59,
            1.59,
            1.59,
            1.53,
            1.58,
            1.54,
            1.63,
            1.56,
            1.54,
            1.57,
            1.53,
            1.54,
            1.53,
            1.52,
            1.54,
            1.58,
            1.53,
            1.55,
            1.55,
            1.56,
            1.53,
            1.49,
            1.55,
            1.6,
            1.53,
            1.51,
            1.51,
            1.54,
            1.58,
            1.51,
            1.55,
            1.5,
            1.54,
            1.55,
            1.56,
            1.47,
            1.56,
            1.48,
            1.53,
            1.51,
            1.55
          ]
        ]
      }
    }
  },
  "experimental_conditions": {
    "001": {
      "0": {
        "analysis": [
          {
            "x4_code": null,
            "free_txt": [
              " Below 1.8 MeV 4 channels grouped in order to improve",
              " statistics."
            ]
          }
        ],
        "correction": [
          {
            "x4_code": null,
            "free_txt": [
              ".Corrected for background and",
              " for the dead time of the time recording system.",
              " Multiple scattering effects are estimated to be",
              " negligible."
            ]
          }
        ],
        "comment": [
          {
            "x4_code": null,
            "free_txt": [
              " Overall energy resolution given is an upper limit =",
              "     (FWHM of the gamma peak)/(flight path) = dt/l,",
              " where dt = 2.7 nanosec.",
              " This will result in 0.93 keV/channel at 0.8 MeV to",
              " 240 keV/channel at 32 MeV."
            ]
          }
        ],
        "detector": [
          {
            "x4_code": "(SCIN)",
            "free_txt": [
              "  liquid scintillator (NE-213), 9 cm diam.,",
              " 1 cm thick viewed by an XP-1040 photo tube."
            ]
          }
        ],
        "err-analys": [
          {
            "x4_code": "(ERR-T)",
            "free_txt": [
              " The absolute cross-section va1ues are",
              "expected to be accurate within 4%."
            ]
          },
          {
            "x4_code": "(ERR-S,1.,2.)",
            "free_txt": [
              " the statistical error runs from better",
              " than 1% to about 2% in most of the channels."
            ]
          }
        ],
        "facility": [
          {
            "x4_code": "(ISOCY,2GERKFK)",
            "free_txt": [
              " 45 MeV Karlsruhe isochronous cyclotron",
              ".Burst width 1.5 ns, repetition rate 20 kc/s."
            ]
          }
        ],
        "inc-source": [
          {
            "x4_code": null,
            "free_txt": [
              " U(d,nx)-reaction."
            ]
          }
        ],
        "inc-spect": [
          {
            "x4_code": null,
            "free_txt": [
              " Broad neutron spectrum in the energy region from",
              " 0.3 to 30 MeV."
            ]
          }
        ],
        "method": [
          {
            "x4_code": "(TOF)",
            "free_txt": [
              "    Flight path length = 57.349 m."
            ]
          },
          {
            "x4_code": "(TRN)",
            "free_txt": [
              "      Transmission measurement."
            ]
          }
        ],
        "monitor": [
          {
            "x4_code": null,
            "free_txt": [
              " Absolute measurement."
            ]
          }
        ],
        "rel-ref": [
          {
            "x4_code": "(I,,S.Cierjacks+,J,RSI,39,1279,1968)",
            "free_txt": []
          },
          {
            "x4_code": "(R,20015002,S.Cierjacks+,J,PRL,23,866,1969)",
            "free_txt": [
              " - used",
              "     in correction on effect of hydrogen"
            ]
          },
          {
            "x4_code": "(M,,B.Zeitnitz+,J,NP/A,166,461,1971)",
            "free_txt": [
              " - data from",
              "    experiment made in 2GERMPH - Max-Planck-Institut",
              "                         fuer Kernphysik, Heidelberg"
            ]
          }
        ],
        "sample": [
          {
            "x4_code": null,
            "free_txt": [
              " 45 grams of liquid. N-H(3)  in a stainless steel",
              " container, chemical impurities less than 0.01%,",
              " 99.0% 7-N-15 enrichment.",
              " The sample area was 3.75 cm2,",
              " thickness, N = 0.2424 atoms/barn,",
              " this value is based on the temperature dependence of",
              " the N-H(3) density as given by the Handbook of Chem.",
              " and phys., 45Th ed. (1964) The Chemical Rubber Co,",
              " Cleveland (Ohio) U.S.A.",
              " The neutron beam was collimated at 1.1, 10, and 37 m",
              " from the source to about 3.E-6 sr.",
              " Alternating runs with the sample in and out of the",
              " beam on a 250 sec cycle."
            ]
          }
        ],
        "status": [
          {
            "x4_code": "(TABLE)",
            "free_txt": [
              "  Nebe, 1970/12/11, on tape."
            ]
          },
          {
            "x4_code": "(APRVD)",
            "free_txt": [
              "    Nebe, telephon calls and letters, 02/1971."
            ]
          }
        ]
      }
    },
    "002": {}
  }
}