{
  "bib": {
    "title": "High-resolution cross section measurement for 236U(n,f).",
    "authors": [
      {
        "name": "H.Rosler"
      },
      {
        "name": "F.Plasil"
      },
      {
        "name": "H.W.Schmitt"
      }
    ],
    "institutes": [
      {
        "x4_code": "(1USAORL)",
        "free_txt": []
      }
    ],
    "references": {
      "0": [
        {
          "x4_code": "(J,PL/B,38,501,197204)",
          "free_txt": [],
          "publication_year": "1972"
        }
      ]
    },
    "facility": {
      "0": [
        {
          "x4_code": "(LINAC)",
          "free_txt": [
            " Oak Ridge Electron Linear Accelerator"
          ]
        }
      ]
    },
    "history": [
      {
        "x4_code": "(19750812C)",
        "free_txt": []
      },
      {
        "x4_code": "(19830613A)",
        "free_txt": [
          " Converted to REACTION formalism"
        ]
      },
      {
        "x4_code": "(20011204A)",
        "free_txt": [
          " Converted to new date formats, lower case."
        ]
      },
      {
        "x4_code": "(20051018C)",
        "free_txt": [
          " DR First value at 0.4916 MeV deleted",
          "            because of its possible wrong value (of",
          "            0.08421) compared to cross sections at",
          "            0.4921 MeV and higher energies"
        ]
      }
    ]
  },
  "10262-001": {
    "extra_information": {
      "correction": {
        "0": [
          {
            "x4_code": null,
            "free_txt": [
              "Data corrected for dead-time, background effects, and",
              " effects of aluminum contained in chamber or flux",
              " monitors."
            ]
          }
        ]
      },
      "detector": {
        "0": [
          {
            "x4_code": "(FISCH)",
            "free_txt": []
          },
          {
            "x4_code": "(SCIN)",
            "free_txt": [
              " plastic scintillator and ionization chamber used",
              "       to monitor neutron flux."
            ]
          }
        ]
      },
      "err-analys": {
        "0": [
          {
            "x4_code": null,
            "free_txt": [
              "No information on uncertainties."
            ]
          }
        ]
      },
      "facility": {
        "0": [
          {
            "x4_code": "(LINAC)",
            "free_txt": [
              " Oak Ridge Electron Linear Accelerator"
            ]
          }
        ]
      },
      "inc-source": {
        "0": [
          {
            "x4_code": "(PHOTO)",
            "free_txt": []
          }
        ]
      },
      "method": {
        "0": [
          {
            "x4_code": "(TOF)",
            "free_txt": [
              " Time-of-flight over 33-m flight path."
            ]
          }
        ]
      },
      "monitor": {
        "0": [
          {
            "x4_code": "(92-U-235(N,F),,SIG)",
            "free_txt": [
              " For flux monitor calibration.",
              " Cross section normalized at 2 MeV."
            ]
          }
        ]
      },
      "sample": {
        "0": [
          {
            "x4_code": null,
            "free_txt": [
              "0.5 mg/cm2 236U electroplated on both sides of",
              " aluminum plates."
            ]
          }
        ]
      },
      "status": {
        "0": [
          {
            "x4_code": null,
            "free_txt": [
              "No reply to author proff.",
              "Tabulated data received from H. Rosler, August 1975."
            ]
          }
        ]
      }
    }
  },
  "10262-002": {
    "reaction": {
      "0": {
        "x4_code": "(92-U-236(N,F),,SIG)",
        "0": {
          "code": [
            "92-U-236",
            [
              "N,F"
            ],
            ",,SIG"
          ],
          "type": null,
          "target": "92-U-236",
          "process": "N,F",
          "sf49": ",,SIG",
          "sf4": null,
          "sf5": null,
          "sf6": "SIG",
          "sf7": null,
          "sf8": null,
          "sf9": null
        },
        "type": null,
        "free_text": ""
      }
    },
    "extra_information": {},
    "common": {
      "heads": [
        "EN-RSL",
        "EN-NRM"
      ],
      "units": [
        "KEV",
        "MEV"
      ],
      "data": [
        [
          7.0
        ],
        [
          2.0
        ]
      ]
    },
    "data": {
      "heads": [
        "EN",
        "DATA"
      ],
      "units": [
        "MEV",
        "B"
      ],
      "data": [
        [
          0.4921,
          0.4926,
          0.4931,
          0.4937,
          0.4942,
          0.4947,
          0.4952,
          0.4957,
          0.4962,
          0.4968,
          0.4973,
          0.4978,
          0.4983,
          0.4988,
          0.4994,
          0.4999,
          0.5004,
          0.5009,
          0.5015,
          0.502,
          0.5025,
          0.5031,
          0.5036,
          0.5041,
          0.5047,
          0.5052,
          0.5057,
          0.5063,
          0.5068,
          0.5073,
          0.5079,
          0.5084,
          0.5089,
          0.5095,
          0.51,
          0.5106,
          0.5111,
          0.5116,
          0.5122,
          0.5127,
          0.5133,
          0.5138,
          0.5144,
          0.5149,
          0.5155,
          0.516,
          0.5166,
          0.5171,
          0.5177,
          0.5182,
          0.5188,
          0.5193,
          0.5199,
          0.5204,
          0.521,
          0.5216,
          0.5221,
          0.5227,
          0.5232,
          0.5238,
          0.5244,
          0.5249,
          0.5255,
          0.5261,
          0.5266,
          0.5272,
          0.5278,
          0.5283,
          0.5289,
          0.5295,
          0.5301,
          0.5306,
          0.5312,
          0.5318,
          0.5324,
          0.5329,
          0.5335,
          0.5341,
          0.5347,
          0.5352,
          0.5358,
          0.5364,
          0.537,
          0.5376,
          0.5382,
          0.5388,
          0.5393,
          0.5399,
          0.5405,
          0.5411,
          0.5417,
          0.5423,
          0.5429,
          0.5435,
          0.5441,
          0.5447,
          0.5453,
          0.5459,
          0.5465,
          0.5471,
          0.5477,
          0.5483,
          0.5489,
          0.5495,
          0.5501,
          0.5507,
          0.5513,
          0.5519,
          0.5525,
          0.5531,
          0.5537,
          0.5543,
          0.555,
          0.5556,
          0.5562,
          0.5568,
          0.5574,
          0.558,
          0.5587,
          0.5593,
          0.5599,
          0.5605,
          0.5611,
          0.5618,
          0.5624,
          0.563,
          0.5637,
          0.5643,
          0.5649,
          0.5655,
          0.5662,
          0.5668,
          0.5674,
          0.5681,
          0.5687,
          0.5693,
          0.57,
          0.5706,
          0.5713,
          0.5719,
          0.5725,
          0.5732,
          0.5738,
          0.5745,
          0.5751,
          0.5758,
          0.5764,
          0.5771,
          0.5777,
          0.5784,
          0.579,
          0.5797,
          0.5803,
          0.581,
          0.5817,
          0.5823,
          0.583,
          0.5836,
          0.5843,
          0.585,
          0.5856,
          0.5863,
          0.587,
          0.5876,
          0.5883,
          0.589,
          0.5896,
          0.5903,
          0.591,
          0.5917,
          0.5923,
          0.593,
          0.5937,
          0.5944,
          0.5951,
          0.5957,
          0.5964,
          0.5971,
          0.5978,
          0.5985,
          0.5992,
          0.5999,
          0.6005,
          0.6012,
          0.6019,
          0.6026,
          0.6033,
          0.604,
          0.6047,
          0.6054,
          0.6061,
          0.6068,
          0.6075,
          0.6082,
          0.6089,
          0.6096,
          0.6103,
          0.611,
          0.6118,
          0.6125,
          0.6132,
          0.6139,
          0.6146,
          0.6153,
          0.616,
          0.6168,
          0.6175,
          0.6182,
          0.6189,
          0.6196,
          0.6204,
          0.6211,
          0.6218,
          0.6226,
          0.6233,
          0.624,
          0.6247,
          0.6255,
          0.6262,
          0.627,
          0.6277,
          0.6284,
          0.6292,
          0.6299,
          0.6307,
          0.6314,
          0.6321,
          0.6329,
          0.6336,
          0.6344,
          0.6351,
          0.6359,
          0.6366,
          0.6374,
          0.6382,
          0.6389,
          0.6397,
          0.6404,
          0.6412,
          0.642,
          0.6427,
          0.6435,
          0.6443,
          0.645,
          0.6458,
          0.6466,
          0.6473,
          0.6481,
          0.6489,
          0.6497,
          0.6504,
          0.6512,
          0.652,
          0.6528,
          0.6536,
          0.6544,
          0.6551,
          0.6559,
          0.6567,
          0.6575,
          0.6583,
          0.6591,
          0.6599,
          0.6607,
          0.6615,
          0.6623,
          0.6631,
          0.6639,
          0.6647,
          0.6655,
          0.6663,
          0.6671,
          0.6679,
          0.6687,
          0.6695,
          0.6704,
          0.6712,
          0.672,
          0.6728,
          0.6736,
          0.6745,
          0.6753,
          0.6761,
          0.6769,
          0.6778,
          0.6786,
          0.6794,
          0.6802,
          0.6811,
          0.6819,
          0.6827,
          0.6836,
          0.6844,
          0.6853,
          0.6861,
          0.687,
          0.6878,
          0.6887,
          0.6895,
          0.6904,
          0.6912,
          0.6921,
          0.6929,
          0.6938,
          0.6946,
          0.6955,
          0.6964,
          0.6972,
          0.6981,
          0.6989,
          0.6998,
          0.7007,
          0.7016,
          0.7024,
          0.7033,
          0.7042,
          0.7051,
          0.7059,
          0.7068,
          0.7077,
          0.7086,
          0.7095,
          0.7104,
          0.7113,
          0.7121,
          0.713,
          0.7139,
          0.7148,
          0.7157,
          0.7166,
          0.7175,
          0.7184,
          0.7193,
          0.7202,
          0.7212,
          0.7221,
          0.723,
          0.7239,
          0.7248,
          0.7257,
          0.7266,
          0.7276,
          0.7285,
          0.7294,
          0.7303,
          0.7313,
          0.7322,
          0.7331,
          0.7341,
          0.735,
          0.7359,
          0.7369,
          0.7378,
          0.7387,
          0.7397,
          0.7406,
          0.7416,
          0.7425,
          0.7435,
          0.7444,
          0.7454,
          0.7463,
          0.7473,
          0.7483,
          0.7492,
          0.7502,
          0.7512,
          0.7521,
          0.7531,
          0.7541,
          0.755,
          0.756,
          0.757,
          0.758,
          0.7589,
          0.7599,
          0.7609,
          0.7619,
          0.7629,
          0.7639,
          0.7649,
          0.7659,
          0.7669,
          0.7679,
          0.7689,
          0.7699,
          0.7709,
          0.7719,
          0.7729,
          0.7739,
          0.7749,
          0.7759,
          0.7769,
          0.7779,
          0.779,
          0.78,
          0.781,
          0.782,
          0.7831,
          0.7841,
          0.7851,
          0.7862,
          0.7872,
          0.7882,
          0.7893,
          0.7903,
          0.7914,
          0.7924,
          0.7935,
          0.7945,
          0.7956,
          0.7966,
          0.7977,
          0.7987,
          0.7998,
          0.8009,
          0.8019,
          0.803,
          0.8041,
          0.8051,
          0.8062,
          0.8073,
          0.8084,
          0.8094,
          0.8105,
          0.8116,
          0.8127,
          0.8138,
          0.8149,
          0.816,
          0.8171,
          0.8182,
          0.8193,
          0.8204,
          0.8215,
          0.8226,
          0.8237,
          0.8248,
          0.8259,
          0.827,
          0.8281,
          0.8293,
          0.8304,
          0.8315,
          0.8326,
          0.8338,
          0.8349,
          0.836,
          0.8372,
          0.8383,
          0.8394,
          0.8406,
          0.8417,
          0.8429,
          0.844,
          0.8452,
          0.8463,
          0.8475,
          0.8487,
          0.8498,
          0.851,
          0.8521,
          0.8533,
          0.8545,
          0.8557,
          0.8568,
          0.858,
          0.8592,
          0.8604,
          0.8616,
          0.8628,
          0.8639,
          0.8651,
          0.8663,
          0.8675,
          0.8687,
          0.8699,
          0.8711,
          0.8724,
          0.8736,
          0.8748,
          0.876,
          0.8772,
          0.8784,
          0.8797,
          0.8809,
          0.8821,
          0.8833,
          0.8846,
          0.8858,
          0.8871,
          0.8883,
          0.8895,
          0.8908,
          0.892,
          0.8933,
          0.8945,
          0.8958,
          0.8971,
          0.8983,
          0.8996,
          0.9009,
          0.9021,
          0.9034,
          0.9047,
          0.906,
          0.9072,
          0.9085,
          0.9098,
          0.9111,
          0.9124,
          0.9137,
          0.915,
          0.9163,
          0.9176,
          0.9189,
          0.9202,
          0.9215,
          0.9228,
          0.9242,
          0.9255,
          0.9268,
          0.9281,
          0.9295,
          0.9308,
          0.9321,
          0.9335,
          0.9348,
          0.9361,
          0.9375,
          0.9388,
          0.9402,
          0.9416,
          0.9429,
          0.9443,
          0.9456,
          0.947,
          0.9484,
          0.9497,
          0.9511,
          0.9525,
          0.9539,
          0.9553,
          0.9567,
          0.958,
          0.9594,
          0.9608,
          0.9622,
          0.9636,
          0.965,
          0.9665,
          0.9679,
          0.9693,
          0.9707,
          0.9721,
          0.9736,
          0.975,
          0.9764,
          0.9778,
          0.9793,
          0.9807,
          0.9822,
          0.9836,
          0.9851,
          0.9865,
          0.988,
          0.9894,
          0.9909,
          0.9924,
          0.9938,
          0.9953,
          0.9968,
          0.9983,
          0.9997,
          1.0012,
          1.0027,
          1.0042,
          1.0057,
          1.0072,
          1.0087,
          1.0102,
          1.0117,
          1.0132,
          1.0148,
          1.0163,
          1.0178,
          1.0193,
          1.0209,
          1.0224,
          1.0239,
          1.0255,
          1.027,
          1.0286,
          1.0301,
          1.0317,
          1.0332,
          1.0348,
          1.0363,
          1.0379,
          1.0395,
          1.0411,
          1.0426,
          1.0442,
          1.0458,
          1.0474,
          1.049,
          1.0506,
          1.0522,
          1.0538,
          1.0554,
          1.057,
          1.0586,
          1.0603,
          1.0619,
          1.0635,
          1.0651,
          1.0668,
          1.0684,
          1.0701,
          1.0717,
          1.0733,
          1.075,
          1.0767,
          1.0783,
          1.08,
          1.0817,
          1.0833,
          1.085,
          1.0867,
          1.0884,
          1.0901,
          1.0917,
          1.0934,
          1.0951,
          1.0968,
          1.0986,
          1.1003,
          1.102,
          1.1037,
          1.1054,
          1.1072,
          1.1089,
          1.1106,
          1.1124,
          1.1141,
          1.1159,
          1.1176,
          1.1194,
          1.1211,
          1.1229,
          1.1247,
          1.1264,
          1.1282,
          1.13,
          1.1318,
          1.1336,
          1.1354,
          1.1372,
          1.139,
          1.1408,
          1.1426,
          1.1444,
          1.1462,
          1.148,
          1.1499,
          1.1517,
          1.1536,
          1.1554,
          1.1572,
          1.1591,
          1.1609,
          1.1628,
          1.1647,
          1.1665,
          1.1684,
          1.1703,
          1.1722,
          1.1741,
          1.176,
          1.1778,
          1.1798,
          1.1817,
          1.1836,
          1.1855,
          1.1874,
          1.1893,
          1.1913,
          1.1932,
          1.1951,
          1.1971,
          1.199,
          1.201,
          1.2029,
          1.2049,
          1.2069,
          1.2088,
          1.2108,
          1.2128,
          1.2148,
          1.2168,
          1.2188,
          1.2208,
          1.2228,
          1.2248,
          1.2268,
          1.2288,
          1.2308,
          1.2329,
          1.2349,
          1.2369,
          1.239,
          1.241,
          1.2431,
          1.2452,
          1.2472,
          1.2493,
          1.2514,
          1.2535,
          1.2555,
          1.2576,
          1.2597,
          1.2618,
          1.2639,
          1.2661,
          1.2682,
          1.2703,
          1.2724,
          1.2746,
          1.2767,
          1.2788,
          1.281,
          1.2832,
          1.2853,
          1.2875,
          1.2897,
          1.2918,
          1.294,
          1.2962,
          1.2984,
          1.3006,
          1.3028,
          1.305,
          1.3072,
          1.3095,
          1.3117,
          1.3139,
          1.3162,
          1.3184,
          1.3207,
          1.3229,
          1.3252,
          1.3275,
          1.3297,
          1.332,
          1.3343,
          1.3366,
          1.3389,
          1.3412,
          1.3435,
          1.3458,
          1.3481,
          1.3505,
          1.3528,
          1.3551,
          1.3575,
          1.3598,
          1.3622,
          1.3646,
          1.3669,
          1.3693,
          1.3717,
          1.3741,
          1.3765,
          1.3789,
          1.3813,
          1.3837,
          1.3861,
          1.3886,
          1.391,
          1.3934,
          1.3959,
          1.3983,
          1.4008,
          1.4033,
          1.4057,
          1.4082,
          1.4107,
          1.4132,
          1.4157,
          1.4182,
          1.4207,
          1.4232,
          1.4257,
          1.4283,
          1.4308,
          1.4334,
          1.4359,
          1.4385,
          1.441,
          1.4436,
          1.4462,
          1.4488,
          1.4514,
          1.454,
          1.4566,
          1.4592,
          1.4618,
          1.4645,
          1.4671,
          1.4697,
          1.4724,
          1.475,
          1.4777,
          1.4804,
          1.4831,
          1.4857,
          1.4884,
          1.4911,
          1.4938,
          1.4966,
          1.4993,
          1.502,
          1.5048,
          1.5075,
          1.5103,
          1.513,
          1.5158,
          1.5186,
          1.5213,
          1.5241,
          1.5269,
          1.5297,
          1.5326,
          1.5354,
          1.5382,
          1.5411,
          1.5439,
          1.5468,
          1.5496,
          1.5525,
          1.5554,
          1.5582,
          1.5611,
          1.564,
          1.567,
          1.5699,
          1.5728,
          1.5757,
          1.5787,
          1.5816,
          1.5846,
          1.5876,
          1.5905,
          1.5935,
          1.5965,
          1.5995,
          1.6025,
          1.6055,
          1.6086,
          1.6116,
          1.6146,
          1.6177,
          1.6208,
          1.6238,
          1.6269,
          1.63,
          1.6331,
          1.6362,
          1.6393,
          1.6424,
          1.6456,
          1.6487,
          1.6519,
          1.655,
          1.6582,
          1.6614,
          1.6645,
          1.6677,
          1.6709,
          1.6742,
          1.6774,
          1.6806,
          1.6839,
          1.6871,
          1.6904,
          1.6936,
          1.6969,
          1.7002,
          1.7035,
          1.7068,
          1.7101,
          1.7135,
          1.7168,
          1.7201,
          1.7235,
          1.7269,
          1.7302,
          1.7336,
          1.737,
          1.7404,
          1.7439,
          1.7473,
          1.7507,
          1.7542,
          1.7576,
          1.7611,
          1.7646,
          1.7681,
          1.7716,
          1.7751,
          1.7786,
          1.7821,
          1.7857,
          1.7892,
          1.7928,
          1.7963,
          1.7999,
          1.8035,
          1.8071,
          1.8107,
          1.8144,
          1.818,
          1.8216,
          1.8253,
          1.829,
          1.8327,
          1.8364,
          1.8401,
          1.8438,
          1.8475,
          1.8512,
          1.855,
          1.8587,
          1.8625,
          1.8663,
          1.8701,
          1.8739,
          1.8777,
          1.8815,
          1.8854,
          1.8892,
          1.8931,
          1.897,
          1.9009,
          1.9048,
          1.9087,
          1.9126,
          1.9165,
          1.9205,
          1.9245,
          1.9284,
          1.9324,
          1.9364,
          1.9404,
          1.9445,
          1.9485,
          1.9525,
          1.9566,
          1.9607,
          1.9648,
          1.9689,
          1.973,
          1.9771,
          1.9812,
          1.9854,
          1.9895,
          1.9937,
          1.9979,
          2.0021,
          2.0063,
          2.0106,
          2.0148,
          2.0191,
          2.0233,
          2.0276,
          2.0319,
          2.0362,
          2.0406,
          2.0449,
          2.0492,
          2.0536,
          2.058,
          2.0624,
          2.0668,
          2.0712,
          2.0757,
          2.0801,
          2.0846,
          2.0891,
          2.0936,
          2.0981,
          2.1026,
          2.1071,
          2.1117,
          2.1163,
          2.1208,
          2.1254,
          2.13,
          2.1347,
          2.1393,
          2.144,
          2.1487,
          2.1533,
          2.158,
          2.1628,
          2.1675,
          2.1723,
          2.177,
          2.1818,
          2.1866,
          2.1914,
          2.1962,
          2.2011,
          2.206,
          2.2108,
          2.2157,
          2.2206,
          2.2256,
          2.2305,
          2.2355,
          2.2404,
          2.2454,
          2.2504,
          2.2555,
          2.2605,
          2.2656,
          2.2707,
          2.2758,
          2.2809,
          2.286,
          2.2911,
          2.2963,
          2.3015,
          2.3067,
          2.3119,
          2.3171,
          2.3224,
          2.3277,
          2.3329,
          2.3383,
          2.3436,
          2.3489,
          2.3543,
          2.3597,
          2.3651,
          2.3705,
          2.3759,
          2.3814,
          2.3868,
          2.3923,
          2.3978,
          2.4034,
          2.4089,
          2.4145,
          2.4201,
          2.4257,
          2.4313,
          2.437,
          2.4426,
          2.4483,
          2.454,
          2.4597,
          2.4655,
          2.4713,
          2.477,
          2.4828,
          2.4887,
          2.4945,
          2.5004,
          2.5063,
          2.5122,
          2.5181,
          2.5241,
          2.53,
          2.536,
          2.5421,
          2.5481,
          2.5541,
          2.5602,
          2.5663,
          2.5725,
          2.5786,
          2.5848,
          2.591,
          2.5972,
          2.6034,
          2.6097,
          2.6159,
          2.6222,
          2.6286,
          2.6349,
          2.6413,
          2.6477,
          2.6541,
          2.6605,
          2.667,
          2.6735,
          2.68,
          2.6865,
          2.6931,
          2.6997,
          2.7063,
          2.7129,
          2.7196,
          2.7263,
          2.733,
          2.7397,
          2.7465,
          2.7532,
          2.7601,
          2.7669,
          2.7737,
          2.7806,
          2.7875,
          2.7945,
          2.8014,
          2.8084,
          2.8154,
          2.8225,
          2.8295,
          2.8366,
          2.8437,
          2.8509,
          2.8581,
          2.8653,
          2.8725,
          2.8797,
          2.887,
          2.8943,
          2.9017,
          2.909,
          2.9164,
          2.9238,
          2.9313,
          2.9388,
          2.9463,
          2.9538,
          2.9614,
          2.969,
          2.9766,
          2.9843,
          2.9919,
          2.9997,
          3.0074,
          3.0152,
          3.023,
          3.0308,
          3.0387,
          3.0466,
          3.0545,
          3.0624,
          3.0704,
          3.0785,
          3.0865,
          3.0946,
          3.1027,
          3.1108,
          3.119,
          3.1272,
          3.1355,
          3.1438,
          3.1521,
          3.1604,
          3.1688,
          3.1772,
          3.1856,
          3.1941,
          3.2026,
          3.2112,
          3.2197,
          3.2283,
          3.237,
          3.2457,
          3.2544,
          3.2631,
          3.2719,
          3.2808,
          3.2896,
          3.2985,
          3.3074,
          3.3164,
          3.3254,
          3.3344,
          3.3435,
          3.3526,
          3.3618,
          3.371,
          3.3802,
          3.3895,
          3.3988,
          3.4081,
          3.4175,
          3.4269,
          3.4364,
          3.4459,
          3.4554,
          3.465,
          3.4746,
          3.4843,
          3.494,
          3.5037,
          3.5135,
          3.5233,
          3.5332,
          3.5431,
          3.553,
          3.563,
          3.573,
          3.5831,
          3.5932,
          3.6034,
          3.6136,
          3.6238,
          3.6341,
          3.6444,
          3.6548,
          3.6652,
          3.6757,
          3.6862,
          3.6968,
          3.7074,
          3.718,
          3.7287,
          3.7394,
          3.7502,
          3.7611,
          3.7719,
          3.7829,
          3.7938,
          3.8049,
          3.8159,
          3.8271,
          3.8382,
          3.8494,
          3.8607,
          3.872,
          3.8834,
          3.8948,
          3.9063,
          3.9178,
          3.9294,
          3.941,
          3.9526,
          3.9644,
          3.9761,
          3.988,
          3.9999,
          4.0118,
          4.0238,
          4.0358,
          4.0479,
          4.0601,
          4.0723,
          4.0845,
          4.0969,
          4.1092,
          4.1217,
          4.1341,
          4.1467,
          4.1593,
          4.1719,
          4.1847,
          4.1974,
          4.2103,
          4.2232,
          4.2361,
          4.2491,
          4.2622,
          4.2753,
          4.2885,
          4.3018,
          4.3151,
          4.3285,
          4.3419,
          4.3554,
          4.369,
          4.3826,
          4.3963,
          4.4101,
          4.4239,
          4.4378,
          4.4517,
          4.4657,
          4.4798,
          4.494,
          4.5082,
          4.5225,
          4.5369,
          4.5513,
          4.5658,
          4.5803,
          4.595,
          4.6097,
          4.6245,
          4.6393,
          4.6542,
          4.6692,
          4.6843,
          4.6994,
          4.7146,
          4.7299,
          4.7453,
          4.7607,
          4.7762,
          4.7918,
          4.8075,
          4.8232,
          4.839,
          4.8549,
          4.8709,
          4.8869,
          4.9031,
          4.9193,
          4.9356,
          4.952,
          4.9684,
          4.985,
          5.0016,
          5.0183,
          5.0351,
          5.0519,
          5.0689,
          5.086,
          5.1031,
          5.1203,
          5.1376,
          5.155,
          5.1725,
          5.1901,
          5.2077,
          5.2255,
          5.2433,
          5.2613,
          5.2793,
          5.2974,
          5.3156,
          5.3339,
          5.3523,
          5.3708,
          5.3894,
          5.4081,
          5.4269,
          5.4458,
          5.4648,
          5.4839,
          5.5031,
          5.5224,
          5.5418,
          5.5613,
          5.5809,
          5.6006,
          5.6204,
          5.6403,
          5.6603,
          5.6804,
          5.7007,
          5.721,
          5.7415,
          5.762,
          5.7827,
          5.8035,
          5.8244,
          5.8454,
          5.8665,
          5.8878,
          5.9091,
          5.9306,
          5.9522,
          5.9739,
          5.9957,
          6.0177,
          6.0397,
          6.0619,
          6.0843,
          6.1067,
          6.1293,
          6.1519,
          6.1748,
          6.1977,
          6.2208,
          6.244,
          6.2673,
          6.2908,
          6.3144,
          6.3381,
          6.362,
          6.386,
          6.4101,
          6.4344,
          6.4588,
          6.4833,
          6.508,
          6.5329,
          6.5579,
          6.583,
          6.6082,
          6.6337,
          6.6592,
          6.6849,
          6.7108,
          6.7368,
          6.763,
          6.7893,
          6.8157,
          6.8424,
          6.8692,
          6.8961,
          6.9232,
          6.9505,
          6.9779,
          7.0055,
          7.0332,
          7.0611,
          7.0892,
          7.1175,
          7.1459,
          7.1745,
          7.2032,
          7.2322,
          7.2613,
          7.2906,
          7.3201,
          7.3497,
          7.3795,
          7.4096,
          7.4398,
          7.4701,
          7.5007,
          7.5315,
          7.5624,
          7.5936,
          7.6249,
          7.6564,
          7.6882,
          7.7201,
          7.7522,
          7.7845,
          7.8171,
          7.8498,
          7.8827,
          7.9159,
          7.9493,
          7.9828,
          8.0166,
          8.0506,
          8.0849,
          8.1193,
          8.154,
          8.1888,
          8.224,
          8.2593,
          8.2949,
          8.3307,
          8.3667,
          8.403,
          8.4395,
          8.4762,
          8.5132,
          8.5504,
          8.5879,
          8.6256,
          8.6636,
          8.7018,
          8.7403,
          8.7791,
          8.8181,
          8.8573,
          8.8969,
          8.9366,
          8.9767,
          9.017,
          9.0576,
          9.0985,
          9.1397,
          9.1811,
          9.2229,
          9.2649,
          9.3072,
          9.3498,
          9.3926,
          9.4358,
          9.4793,
          9.5231
        ],
        [
          0.02074,
          0.02023,
          0.0188,
          0.01386,
          0.01531,
          0.01882,
          0.01786,
          0.01715,
          0.01768,
          0.01762,
          0.01887,
          0.01952,
          0.01536,
          0.01322,
          0.01436,
          0.01983,
          0.01784,
          0.01563,
          0.01523,
          0.01667,
          0.01986,
          0.02186,
          0.0224,
          0.02117,
          0.02067,
          0.01685,
          0.01675,
          0.01414,
          0.01438,
          0.01474,
          0.01447,
          0.0129,
          0.01636,
          0.01605,
          0.0169,
          0.01876,
          0.01818,
          0.01682,
          0.0177,
          0.01413,
          0.01267,
          0.01006,
          0.01172,
          0.01688,
          0.01579,
          0.01402,
          0.01627,
          0.01633,
          0.01619,
          0.01796,
          0.01721,
          0.01559,
          0.01488,
          0.01374,
          0.02074,
          0.02891,
          0.02683,
          0.01871,
          0.01893,
          0.02113,
          0.02013,
          0.01919,
          0.01866,
          0.02117,
          0.01814,
          0.01751,
          0.01963,
          0.0172,
          0.02269,
          0.02021,
          0.01723,
          0.02103,
          0.01669,
          0.01769,
          0.01593,
          0.01346,
          0.01542,
          0.01298,
          0.01254,
          0.01316,
          0.01303,
          0.01461,
          0.01943,
          0.01714,
          0.01506,
          0.01696,
          0.01721,
          0.01857,
          0.01758,
          0.01614,
          0.01524,
          0.01684,
          0.01773,
          0.01674,
          0.01448,
          0.01938,
          0.01978,
          0.01882,
          0.02206,
          0.01903,
          0.01486,
          0.01413,
          0.01496,
          0.01876,
          0.02066,
          0.02096,
          0.02105,
          0.01779,
          0.01875,
          0.02158,
          0.01998,
          0.01802,
          0.01718,
          0.01773,
          0.01867,
          0.01822,
          0.01826,
          0.02178,
          0.01988,
          0.0214,
          0.02027,
          0.02051,
          0.01818,
          0.01427,
          0.01556,
          0.0235,
          0.02032,
          0.02075,
          0.02366,
          0.0241,
          0.02339,
          0.02391,
          0.01916,
          0.01568,
          0.01678,
          0.02002,
          0.0202,
          0.01659,
          0.01729,
          0.01837,
          0.0182,
          0.01761,
          0.01879,
          0.01777,
          0.01918,
          0.02091,
          0.02095,
          0.01833,
          0.01691,
          0.01697,
          0.01834,
          0.02195,
          0.02462,
          0.02114,
          0.0192,
          0.01911,
          0.02003,
          0.01927,
          0.018,
          0.01786,
          0.02354,
          0.02635,
          0.02315,
          0.02065,
          0.02118,
          0.02024,
          0.01954,
          0.02065,
          0.01961,
          0.01885,
          0.01869,
          0.02219,
          0.02427,
          0.02476,
          0.02855,
          0.02793,
          0.02618,
          0.0221,
          0.02125,
          0.02457,
          0.02318,
          0.02097,
          0.02101,
          0.02575,
          0.03233,
          0.03029,
          0.02339,
          0.0203,
          0.02325,
          0.02274,
          0.02608,
          0.02511,
          0.02799,
          0.02546,
          0.0255,
          0.02896,
          0.02407,
          0.02427,
          0.02529,
          0.02309,
          0.02137,
          0.02278,
          0.02022,
          0.01951,
          0.02077,
          0.02532,
          0.02695,
          0.02484,
          0.02656,
          0.03135,
          0.03082,
          0.03406,
          0.03718,
          0.03213,
          0.0311,
          0.02824,
          0.02461,
          0.02405,
          0.02321,
          0.02503,
          0.026,
          0.02836,
          0.02912,
          0.03321,
          0.03532,
          0.03189,
          0.02708,
          0.02584,
          0.02728,
          0.02813,
          0.02671,
          0.02431,
          0.02705,
          0.02776,
          0.026,
          0.02542,
          0.02498,
          0.02574,
          0.02485,
          0.02352,
          0.02767,
          0.02759,
          0.02655,
          0.0306,
          0.02912,
          0.02729,
          0.02992,
          0.02535,
          0.02313,
          0.02775,
          0.02676,
          0.02384,
          0.02476,
          0.02853,
          0.0319,
          0.0339,
          0.03343,
          0.02984,
          0.02813,
          0.02979,
          0.03513,
          0.03679,
          0.03611,
          0.03795,
          0.03975,
          0.04019,
          0.03588,
          0.03344,
          0.0347,
          0.03674,
          0.03277,
          0.03292,
          0.03205,
          0.0298,
          0.03219,
          0.03311,
          0.03386,
          0.03619,
          0.03351,
          0.03581,
          0.03821,
          0.03942,
          0.04068,
          0.04185,
          0.04282,
          0.04379,
          0.03895,
          0.0442,
          0.04091,
          0.04648,
          0.04091,
          0.03719,
          0.04058,
          0.04343,
          0.04771,
          0.04583,
          0.04653,
          0.04896,
          0.05325,
          0.05146,
          0.04629,
          0.04644,
          0.04589,
          0.0481,
          0.04713,
          0.04587,
          0.04599,
          0.04295,
          0.0437,
          0.0409,
          0.04721,
          0.05091,
          0.04957,
          0.04938,
          0.04842,
          0.05486,
          0.06038,
          0.0645,
          0.06862,
          0.0712,
          0.06243,
          0.05635,
          0.0568,
          0.05668,
          0.05769,
          0.06311,
          0.07026,
          0.07228,
          0.0652,
          0.06048,
          0.0588,
          0.06336,
          0.0659,
          0.06849,
          0.0682,
          0.07192,
          0.07526,
          0.07163,
          0.06691,
          0.06944,
          0.07738,
          0.08051,
          0.07961,
          0.082,
          0.08386,
          0.07853,
          0.08013,
          0.07651,
          0.07097,
          0.06769,
          0.07294,
          0.07816,
          0.07951,
          0.07957,
          0.08615,
          0.0899,
          0.09088,
          0.09463,
          0.10257,
          0.10598,
          0.10877,
          0.11184,
          0.1101,
          0.10181,
          0.10046,
          0.10617,
          0.10756,
          0.10706,
          0.10538,
          0.10402,
          0.11077,
          0.11533,
          0.11859,
          0.12143,
          0.12302,
          0.12789,
          0.11434,
          0.10278,
          0.09633,
          0.09447,
          0.09545,
          0.09703,
          0.0943,
          0.09307,
          0.09321,
          0.09657,
          0.09845,
          0.10206,
          0.10563,
          0.10593,
          0.10304,
          0.1015,
          0.10045,
          0.10098,
          0.10837,
          0.11716,
          0.11774,
          0.12217,
          0.12665,
          0.12812,
          0.1369,
          0.13581,
          0.13708,
          0.13786,
          0.13706,
          0.13586,
          0.12666,
          0.12715,
          0.13412,
          0.13395,
          0.13573,
          0.1448,
          0.15699,
          0.14912,
          0.14589,
          0.1589,
          0.16423,
          0.17245,
          0.1764,
          0.17681,
          0.15824,
          0.15641,
          0.15876,
          0.1661,
          0.17696,
          0.19129,
          0.17911,
          0.17273,
          0.1562,
          0.16471,
          0.165,
          0.16771,
          0.16816,
          0.16931,
          0.16661,
          0.18042,
          0.19283,
          0.18451,
          0.18225,
          0.17506,
          0.17929,
          0.17809,
          0.18421,
          0.17665,
          0.18651,
          0.1957,
          0.21039,
          0.22128,
          0.22244,
          0.20895,
          0.19807,
          0.18505,
          0.18716,
          0.18567,
          0.19078,
          0.1998,
          0.20779,
          0.20608,
          0.21248,
          0.21055,
          0.20691,
          0.20526,
          0.21536,
          0.22404,
          0.21942,
          0.21155,
          0.20718,
          0.19531,
          0.19839,
          0.20218,
          0.19903,
          0.19922,
          0.20092,
          0.20351,
          0.19982,
          0.20697,
          0.21555,
          0.22363,
          0.22399,
          0.22578,
          0.23123,
          0.24199,
          0.25804,
          0.26533,
          0.25909,
          0.24785,
          0.24109,
          0.23301,
          0.22484,
          0.23599,
          0.25156,
          0.26051,
          0.26988,
          0.28092,
          0.2859,
          0.28516,
          0.28377,
          0.28887,
          0.29372,
          0.29062,
          0.29084,
          0.29881,
          0.29335,
          0.29202,
          0.29475,
          0.29417,
          0.29725,
          0.30042,
          0.3079,
          0.31877,
          0.34183,
          0.36265,
          0.36463,
          0.36492,
          0.3597,
          0.3469,
          0.33896,
          0.34796,
          0.35031,
          0.36467,
          0.38386,
          0.3828,
          0.38133,
          0.38983,
          0.3851,
          0.38252,
          0.38895,
          0.38758,
          0.39126,
          0.39796,
          0.4005,
          0.39938,
          0.40248,
          0.39516,
          0.38047,
          0.37801,
          0.38594,
          0.38939,
          0.39227,
          0.39649,
          0.39994,
          0.40049,
          0.40146,
          0.39705,
          0.39872,
          0.40217,
          0.40139,
          0.39319,
          0.39162,
          0.39707,
          0.40543,
          0.4024,
          0.39821,
          0.39586,
          0.4005,
          0.39142,
          0.3979,
          0.39046,
          0.38,
          0.3895,
          0.39957,
          0.40562,
          0.3963,
          0.39637,
          0.39574,
          0.39386,
          0.3807,
          0.36304,
          0.3747,
          0.37804,
          0.37445,
          0.37161,
          0.37694,
          0.37958,
          0.37247,
          0.3791,
          0.37519,
          0.36427,
          0.36476,
          0.36378,
          0.38153,
          0.3904,
          0.38804,
          0.3931,
          0.39213,
          0.38216,
          0.38448,
          0.38003,
          0.37639,
          0.37423,
          0.3761,
          0.37491,
          0.37029,
          0.37792,
          0.39086,
          0.39099,
          0.39434,
          0.39033,
          0.3825,
          0.39891,
          0.39009,
          0.37744,
          0.37673,
          0.38253,
          0.39615,
          0.39068,
          0.37969,
          0.37998,
          0.39622,
          0.39927,
          0.39984,
          0.40904,
          0.41366,
          0.40678,
          0.40142,
          0.3944,
          0.40382,
          0.39449,
          0.40093,
          0.40791,
          0.4104,
          0.39458,
          0.40758,
          0.40368,
          0.40288,
          0.4164,
          0.43949,
          0.43766,
          0.42221,
          0.43267,
          0.43302,
          0.45444,
          0.45803,
          0.45736,
          0.46423,
          0.43586,
          0.44584,
          0.43276,
          0.44519,
          0.46384,
          0.49074,
          0.48988,
          0.48984,
          0.48535,
          0.48281,
          0.49373,
          0.48508,
          0.49854,
          0.49286,
          0.49584,
          0.50722,
          0.51215,
          0.51044,
          0.50637,
          0.51305,
          0.4961,
          0.49618,
          0.51342,
          0.50763,
          0.51894,
          0.55495,
          0.54823,
          0.55348,
          0.56458,
          0.55943,
          0.57224,
          0.57014,
          0.56524,
          0.55498,
          0.54634,
          0.52739,
          0.52014,
          0.53693,
          0.53737,
          0.54219,
          0.54331,
          0.55194,
          0.55515,
          0.56062,
          0.56903,
          0.58119,
          0.58003,
          0.56439,
          0.55025,
          0.53149,
          0.5341,
          0.53337,
          0.54515,
          0.56897,
          0.55804,
          0.55795,
          0.5602,
          0.56196,
          0.57537,
          0.57305,
          0.57348,
          0.5626,
          0.56224,
          0.56457,
          0.57738,
          0.58958,
          0.60325,
          0.61207,
          0.60659,
          0.61872,
          0.62269,
          0.61527,
          0.62969,
          0.63063,
          0.64345,
          0.62106,
          0.61102,
          0.645,
          0.6457,
          0.65058,
          0.6501,
          0.66968,
          0.6454,
          0.64297,
          0.65402,
          0.67406,
          0.67309,
          0.68951,
          0.68024,
          0.6719,
          0.67012,
          0.68509,
          0.69634,
          0.70855,
          0.71689,
          0.70463,
          0.70497,
          0.69965,
          0.69631,
          0.71012,
          0.71865,
          0.72575,
          0.73014,
          0.72203,
          0.72059,
          0.71181,
          0.73724,
          0.72767,
          0.72077,
          0.71504,
          0.71783,
          0.71142,
          0.6992,
          0.70758,
          0.70929,
          0.71827,
          0.7027,
          0.69428,
          0.71747,
          0.71785,
          0.69714,
          0.68166,
          0.69206,
          0.70334,
          0.7027,
          0.69563,
          0.69337,
          0.67681,
          0.66932,
          0.68015,
          0.70057,
          0.69266,
          0.69268,
          0.69751,
          0.70199,
          0.69048,
          0.6989,
          0.69621,
          0.70194,
          0.71691,
          0.72109,
          0.70626,
          0.71439,
          0.69993,
          0.69488,
          0.69028,
          0.70035,
          0.69615,
          0.68584,
          0.69832,
          0.7003,
          0.71802,
          0.70847,
          0.73183,
          0.73687,
          0.72288,
          0.71995,
          0.72029,
          0.71482,
          0.72015,
          0.72258,
          0.70328,
          0.72003,
          0.71657,
          0.69251,
          0.70415,
          0.71155,
          0.73174,
          0.69937,
          0.69485,
          0.72462,
          0.70956,
          0.70059,
          0.69578,
          0.70589,
          0.70074,
          0.69499,
          0.68317,
          0.67281,
          0.67584,
          0.69061,
          0.68932,
          0.68219,
          0.67273,
          0.66392,
          0.64508,
          0.65585,
          0.66522,
          0.65229,
          0.6475,
          0.64454,
          0.65171,
          0.65671,
          0.65644,
          0.65456,
          0.65924,
          0.66494,
          0.66139,
          0.65872,
          0.65039,
          0.65322,
          0.6531,
          0.64349,
          0.64775,
          0.65301,
          0.66816,
          0.66608,
          0.64935,
          0.65609,
          0.66479,
          0.66887,
          0.65668,
          0.64629,
          0.6539,
          0.66607,
          0.6723,
          0.67942,
          0.68834,
          0.68107,
          0.6793,
          0.67906,
          0.68306,
          0.67444,
          0.68219,
          0.6832,
          0.67739,
          0.68117,
          0.69149,
          0.68724,
          0.68041,
          0.69477,
          0.70821,
          0.71177,
          0.71536,
          0.71477,
          0.70667,
          0.72114,
          0.71689,
          0.72046,
          0.73647,
          0.72632,
          0.73733,
          0.74343,
          0.7039,
          0.70281,
          0.72965,
          0.72183,
          0.73614,
          0.7389,
          0.74752,
          0.74796,
          0.75053,
          0.76784,
          0.76219,
          0.77112,
          0.75262,
          0.75121,
          0.74988,
          0.75005,
          0.74711,
          0.72939,
          0.74101,
          0.74475,
          0.74052,
          0.74473,
          0.73694,
          0.74044,
          0.76386,
          0.75818,
          0.73637,
          0.73886,
          0.7542,
          0.76963,
          0.77555,
          0.77167,
          0.7644,
          0.74737,
          0.75332,
          0.74836,
          0.76042,
          0.76611,
          0.76269,
          0.77026,
          0.75821,
          0.75044,
          0.7574,
          0.76147,
          0.7534,
          0.77445,
          0.77324,
          0.76513,
          0.75971,
          0.74182,
          0.74484,
          0.75071,
          0.76441,
          0.74545,
          0.72593,
          0.72139,
          0.74216,
          0.78789,
          0.75943,
          0.76175,
          0.80489,
          0.78257,
          0.77154,
          0.77109,
          0.76812,
          0.7724,
          0.80944,
          0.79872,
          0.80158,
          0.78519,
          0.77562,
          0.78697,
          0.78517,
          0.7831,
          0.777,
          0.77674,
          0.77465,
          0.76488,
          0.79226,
          0.79254,
          0.79155,
          0.79129,
          0.79542,
          0.80466,
          0.77326,
          0.78312,
          0.79058,
          0.8033,
          0.805,
          0.81267,
          0.82943,
          0.82261,
          0.78945,
          0.7827,
          0.79284,
          0.77478,
          0.80974,
          0.83928,
          0.80742,
          0.79013,
          0.80207,
          0.82302,
          0.81318,
          0.80145,
          0.8054,
          0.80606,
          0.81595,
          0.81511,
          0.82605,
          0.82688,
          0.83146,
          0.84453,
          0.82394,
          0.81267,
          0.8192,
          0.82558,
          0.81557,
          0.82344,
          0.84453,
          0.85302,
          0.848,
          0.82426,
          0.80171,
          0.81887,
          0.85479,
          0.85114,
          0.84594,
          0.82516,
          0.85009,
          0.8304,
          0.79325,
          0.7992,
          0.83571,
          0.8384,
          0.81945,
          0.84063,
          0.87957,
          0.8621,
          0.83163,
          0.81715,
          0.81713,
          0.82868,
          0.85134,
          0.88036,
          0.87905,
          0.84407,
          0.82799,
          0.84552,
          0.85038,
          0.86206,
          0.86806,
          0.85203,
          0.85733,
          0.8693,
          0.84514,
          0.84826,
          0.84653,
          0.85199,
          0.87681,
          0.88091,
          0.85918,
          0.8585,
          0.84163,
          0.83695,
          0.84853,
          0.84017,
          0.82678,
          0.82901,
          0.83637,
          0.84097,
          0.84288,
          0.84578,
          0.84992,
          0.85502,
          0.86197,
          0.87157,
          0.86343,
          0.85812,
          0.87197,
          0.85584,
          0.8264,
          0.85541,
          0.84432,
          0.86346,
          0.86877,
          0.88231,
          0.88146,
          0.84622,
          0.84241,
          0.82909,
          0.839,
          0.85214,
          0.83376,
          0.84031,
          0.83667,
          0.82868,
          0.83722,
          0.83481,
          0.83514,
          0.84072,
          0.83811,
          0.83615,
          0.83208,
          0.86374,
          0.8265,
          0.85565,
          0.82778,
          0.82311,
          0.83172,
          0.80286,
          0.80217,
          0.81122,
          0.7876,
          0.80517,
          0.81369,
          0.82819,
          0.83313,
          0.78935,
          0.79361,
          0.81902,
          0.8238,
          0.8101,
          0.8265,
          0.83337,
          0.84105,
          0.83555,
          0.83062,
          0.83025,
          0.84955,
          0.8263,
          0.81343,
          0.79992,
          0.81284,
          0.80753,
          0.78085,
          0.80975,
          0.8138,
          0.8063,
          0.81562,
          0.80596,
          0.77469,
          0.79091,
          0.77859,
          0.78957,
          0.79264,
          0.79333,
          0.80555,
          0.7929,
          0.81622,
          0.81769,
          0.80824,
          0.82547,
          0.80438,
          0.82009,
          0.82888,
          0.84858,
          0.8401,
          0.81674,
          0.77104,
          0.79178,
          0.82066,
          0.84004,
          0.85924,
          0.82696,
          0.80171,
          0.82585,
          0.83335,
          0.83231,
          0.79821,
          0.80559,
          0.78408,
          0.78441,
          0.78897,
          0.79366,
          0.81284,
          0.84089,
          0.81229,
          0.79417,
          0.79845,
          0.83071,
          0.82193,
          0.81139,
          0.80955,
          0.80468,
          0.80336,
          0.80381,
          0.83241,
          0.79974,
          0.78744,
          0.74284,
          0.77864,
          0.79331,
          0.81502,
          0.78158,
          0.78128,
          0.79122,
          0.7929,
          0.75703,
          0.74411,
          0.78732,
          0.81145,
          0.81411,
          0.82351,
          0.85226,
          0.83915,
          0.7971,
          0.79598,
          0.79043,
          0.77816,
          0.74312,
          0.74166,
          0.77802,
          0.79152,
          0.79352,
          0.76697,
          0.79959,
          0.81583,
          0.83822,
          0.82337,
          0.802,
          0.77838,
          0.79755,
          0.80467,
          0.79133,
          0.78668,
          0.78998,
          0.77845,
          0.7908,
          0.81579,
          0.80966,
          0.79305,
          0.81666,
          0.82143,
          0.79021,
          0.77545,
          0.7996,
          0.83983,
          0.85068,
          0.85747,
          0.79723,
          0.80174,
          0.7796,
          0.79599,
          0.81106,
          0.81078,
          0.79703,
          0.78478,
          0.76992,
          0.82448,
          0.8395,
          0.8243,
          0.80572,
          0.768,
          0.81711,
          0.8645,
          0.86035,
          0.77839,
          0.78784,
          0.81011,
          0.80471,
          0.84556,
          0.84139,
          0.86315,
          0.82845,
          0.77878,
          0.80982,
          0.82255,
          0.79587,
          0.81945,
          0.83196,
          0.82778,
          0.81922,
          0.83415,
          0.78451,
          0.79197,
          0.83246,
          0.83701,
          0.82179,
          0.81289,
          0.82335,
          0.84603,
          0.8224,
          0.79496,
          0.852,
          0.82079,
          0.83757,
          0.8512,
          0.81676,
          0.83081,
          0.80419,
          0.81555,
          0.83821,
          0.84123,
          0.83498,
          0.80945,
          0.82012,
          0.81667,
          0.80951,
          0.78027,
          0.82961,
          0.8636,
          0.81843,
          0.77645,
          0.76957,
          0.83751,
          0.82546,
          0.82199,
          0.81587,
          0.79284,
          0.79756,
          0.82389,
          0.82868,
          0.8235,
          0.81927,
          0.83883,
          0.81294,
          0.81941,
          0.77074,
          0.80008,
          0.77635,
          0.78306,
          0.82129,
          0.7792,
          0.78975,
          0.83171,
          0.81359,
          0.80154,
          0.7775,
          0.79033,
          0.76781,
          0.78965,
          0.74325,
          0.76774,
          0.80705,
          0.81993,
          0.77101,
          0.81169,
          0.79651,
          0.76889,
          0.80195,
          0.78578,
          0.81492,
          0.78784,
          0.75002,
          0.75405,
          0.7933,
          0.78787,
          0.78742,
          0.79108,
          0.78818,
          0.77071,
          0.80306,
          0.82326,
          0.81723,
          0.78899,
          0.80025,
          0.79837,
          0.75948,
          0.74885,
          0.75857,
          0.76614,
          0.81181,
          0.81421,
          0.81228,
          0.8091,
          0.77379,
          0.76408,
          0.80155,
          0.81381,
          0.79275,
          0.79908,
          0.82261,
          0.78897,
          0.75215,
          0.77354,
          0.79317,
          0.86224,
          0.85029,
          0.84165,
          0.83642,
          0.7903,
          0.83084,
          0.87266,
          0.87577,
          0.89918,
          0.86451,
          0.82736,
          0.82315,
          0.8775,
          0.93293,
          0.85908,
          0.86301,
          0.86203,
          0.89317,
          0.86878,
          0.92629,
          0.94035,
          0.89641,
          0.90589,
          0.92819,
          0.87649,
          0.92805,
          0.95816,
          0.92631,
          0.94779,
          0.98013,
          1.0366,
          1.06235,
          0.96722,
          1.04552,
          1.03928,
          1.06591,
          1.08979,
          1.13376,
          1.07101,
          1.08957,
          1.19546,
          1.22233,
          1.22213,
          1.20368,
          1.23781,
          1.24096,
          1.25409,
          1.23319,
          1.26296,
          1.32723,
          1.27323,
          1.24275,
          1.28814,
          1.34479,
          1.36271,
          1.40029,
          1.40887,
          1.39318,
          1.35069,
          1.31655,
          1.33052,
          1.32092,
          1.28255,
          1.27445,
          1.30508,
          1.38136,
          1.32357,
          1.25642,
          1.26282,
          1.28378,
          1.31947,
          1.3912,
          1.44243,
          1.39671,
          1.35405,
          1.31499,
          1.26882,
          1.23425,
          1.24381,
          1.28646,
          1.28934,
          1.28088,
          1.23284,
          1.20571,
          1.26145,
          1.23294,
          1.19407,
          1.2371,
          1.19547,
          1.28797,
          1.33024,
          1.30556,
          1.30414,
          1.29913,
          1.32922,
          1.25093,
          1.25929,
          1.30547,
          1.31899,
          1.31838,
          1.1785,
          1.27185,
          1.3292,
          1.27714,
          1.26971,
          1.32084,
          1.20414,
          1.22554,
          1.30024,
          1.25016,
          1.17263,
          1.20071,
          1.24733,
          1.12393,
          1.10862,
          1.15625,
          1.16158,
          1.09308,
          1.02602,
          1.03411,
          1.00608,
          1.03924,
          1.07249,
          1.06927,
          1.04913,
          1.03656,
          1.03126,
          1.01599,
          1.01947
        ]
      ]
    }
  }
}