{
  "entry": "10278",
  "last_updated": "2006-07-20",
  "number_of_revisions": "3",
  "histories": [
    {
      "x4_code": "(19751210A)",
      "free_txt": [
        " BIB updated and SANs 3 and 4 added"
      ]
    },
    {
      "x4_code": "(19830110A)",
      "free_txt": [
        " Converted to REACTION formalism"
      ]
    },
    {
      "x4_code": "(19851204A)",
      "free_txt": [
        " Obsolete keyword corrected."
      ]
    },
    {
      "x4_code": "(20011227A)",
      "free_txt": [
        " Updated to new date formats, lower case."
      ]
    }
  ],
  "bib_record": {
    "title": "3He and 4He total neutron cross sections in the MeV region.",
    "authors": [
      {
        "name": "C.Goulding"
      },
      {
        "name": "P.Stoler"
      }
    ],
    "institutes": [
      {
        "x4_code": "(1USARPI)",
        "free_txt": []
      }
    ],
    "references": [
      {
        "x4_code": "(J,NP/A,215,253,197311)",
        "free_txt": [],
        "publication_year": "1973",
        "doi": null,
        "pointer": "0"
      }
    ],
    "facilities": [
      {
        "x4_code": "(LINAC,1USARPI)",
        "free_txt": [
          " RPI electron linac."
        ],
        "pointer": "0",
        "facility_type": "(LINAC)",
        "institute": "(1USARPI)"
      }
    ]
  },
  "reactions": {
    "002": {
      "0": {
        "x4_code": "(2-HE-0(N,TOT),,SIG)",
        "children": [
          {
            "code": [
              "2-HE-0",
              [
                "N,TOT"
              ],
              ",,SIG"
            ],
            "type": null,
            "target": "2-HE-0",
            "process": "N,TOT",
            "sf49": ",,SIG",
            "sf4": null,
            "sf5": null,
            "sf6": "SIG",
            "sf7": null,
            "sf8": null,
            "sf9": null
          }
        ],
        "type": null,
        "free_text": "",
        "pointer": "0"
      }
    },
    "003": {
      "0": {
        "x4_code": "(2-HE-3(N,TOT),,SIG)",
        "children": [
          {
            "code": [
              "2-HE-3",
              [
                "N,TOT"
              ],
              ",,SIG"
            ],
            "type": null,
            "target": "2-HE-3",
            "process": "N,TOT",
            "sf49": ",,SIG",
            "sf4": null,
            "sf5": null,
            "sf6": "SIG",
            "sf7": null,
            "sf8": null,
            "sf9": null
          }
        ],
        "type": null,
        "free_text": "",
        "pointer": "0"
      }
    },
    "004": {
      "0": {
        "x4_code": "(2-HE-3(N,TOT),,SIG)",
        "children": [
          {
            "code": [
              "2-HE-3",
              [
                "N,TOT"
              ],
              ",,SIG"
            ],
            "type": null,
            "target": "2-HE-3",
            "process": "N,TOT",
            "sf49": ",,SIG",
            "sf4": null,
            "sf5": null,
            "sf6": "SIG",
            "sf7": null,
            "sf8": null,
            "sf9": null
          }
        ],
        "type": null,
        "free_text": "",
        "pointer": "0"
      }
    }
  },
  "data_tables": {
    "001": {
      "common": null
    },
    "002": {
      "common": {
        "heads": [
          "EN-RSL"
        ],
        "units": [
          "NSEC/M"
        ],
        "data": [
          [
            0.16
          ]
        ]
      },
      "data": {
        "heads": [
          "EN",
          "DATA",
          "ERR-S"
        ],
        "units": [
          "MEV",
          "B",
          "B"
        ],
        "data": [
          [
            0.70151,
            0.70412,
            0.70675,
            0.70906,
            0.71138,
            0.71404,
            0.71672,
            0.71942,
            0.72179,
            0.72417,
            0.72691,
            0.72967,
            0.73244,
            0.73487,
            0.73732,
            0.74013,
            0.74296,
            0.74581,
            0.74831,
            0.75083,
            0.75372,
            0.75663,
            0.75918,
            0.76175,
            0.76471,
            0.76768,
            0.77067,
            0.7733,
            0.77594,
            0.77898,
            0.78203,
            0.78511,
            0.78781,
            0.79053,
            0.79365,
            0.79679,
            0.79996,
            0.80274,
            0.80553,
            0.80875,
            0.81198,
            0.81523,
            0.81809,
            0.82097,
            0.82427,
            0.82759,
            0.83051,
            0.83345,
            0.83683,
            0.84023,
            0.84365,
            0.84666,
            0.84968,
            0.85316,
            0.85666,
            0.86018,
            0.86328,
            0.86639,
            0.86998,
            0.87358,
            0.8772,
            0.88039,
            0.8836,
            0.88729,
            0.891,
            0.89474,
            0.89802,
            0.90133,
            0.90513,
            0.90895,
            0.9128,
            0.91618,
            0.91958,
            0.92349,
            0.92743,
            0.93139,
            0.93488,
            0.93839,
            0.94242,
            0.94648,
            0.95057,
            0.95416,
            0.95778,
            0.96194,
            0.96613,
            0.97034,
            0.97405,
            0.97778,
            0.98207,
            0.98639,
            0.99073,
            0.99456,
            0.99841,
            1.0028,
            1.0072,
            1.0117,
            1.0157,
            1.0197,
            1.0242,
            1.0288,
            1.0335,
            1.0375,
            1.0416,
            1.0464,
            1.0511,
            1.0559,
            1.0601,
            1.0643,
            1.0692,
            1.0741,
            1.0791,
            1.0834,
            1.0878,
            1.0928,
            1.0979,
            1.103,
            1.1075,
            1.112,
            1.1172,
            1.1225,
            1.1277,
            1.1324,
            1.1371,
            1.1425,
            1.1479,
            1.1533,
            1.1581,
            1.163,
            1.1686,
            1.1742,
            1.1798,
            1.1848,
            1.1898,
            1.1956,
            1.2014,
            1.2065,
            1.2116,
            1.2175,
            1.2235,
            1.2295,
            1.2348,
            1.2401,
            1.2463,
            1.2524,
            1.2587,
            1.2641,
            1.2697,
            1.276,
            1.2824,
            1.2889,
            1.2945,
            1.3002,
            1.3068,
            1.3135,
            1.3201,
            1.326,
            1.3319,
            1.3388,
            1.3456,
            1.3526,
            1.3587,
            1.3648,
            1.3719,
            1.379,
            1.3862,
            1.3925,
            1.3989,
            1.4062,
            1.4136,
            1.4211,
            1.4286,
            1.4352,
            1.4419,
            1.4496,
            1.4573,
            1.4652,
            1.472,
            1.479,
            1.487,
            1.495,
            1.5031,
            1.5103,
            1.5175,
            1.5258,
            1.5341,
            1.5426,
            1.55,
            1.5575,
            1.5661,
            1.5748,
            1.5836,
            1.5913,
            1.5991,
            1.6081,
            1.6171,
            1.6263,
            1.6343,
            1.6424,
            1.6518,
            1.6612,
            1.6707,
            1.6791,
            1.6875,
            1.6973,
            1.7071,
            1.717,
            1.7257,
            1.7345,
            1.7447,
            1.7549,
            1.7652,
            1.7743,
            1.7835,
            1.7941,
            1.8048,
            1.8155,
            1.825,
            1.8346,
            1.8456,
            1.8568,
            1.868,
            1.8779,
            1.8879,
            1.8995,
            1.9111,
            1.9228,
            1.9332,
            1.9436,
            1.9556,
            1.9678,
            1.98,
            1.9908,
            2.0017,
            2.0143,
            2.027,
            2.0398,
            2.0511,
            2.0625,
            2.0756,
            2.0889,
            2.1023,
            2.1142,
            2.1261,
            2.1398,
            2.1537,
            2.1678,
            2.1802,
            2.1927,
            2.2071,
            2.2216,
            2.2363,
            2.2493,
            2.2624,
            2.2776,
            2.2929,
            2.3083,
            2.322,
            2.3357,
            2.3516,
            2.3677,
            2.3839,
            2.3982,
            2.4127,
            2.4293,
            2.4462,
            2.4632,
            2.4783,
            2.4934,
            2.511,
            2.5287,
            2.5466,
            2.5624,
            2.5784,
            2.5968,
            2.6154,
            2.6319,
            2.6485,
            2.6677,
            2.6871,
            2.7067,
            2.724,
            2.7415,
            2.7616,
            2.782,
            2.8026,
            2.8209,
            2.8393,
            2.8606,
            2.8821,
            2.9038,
            2.9231,
            2.9425,
            2.9649,
            2.9876,
            3.0106,
            3.0309,
            3.0514,
            3.0751,
            3.0991,
            3.1233,
            3.1448,
            3.1665,
            3.1916,
            3.2169,
            3.2426,
            3.2653,
            3.2883,
            3.3149,
            3.3418,
            3.3691,
            3.3932,
            3.4175,
            3.4457,
            3.4742,
            3.5031,
            3.5286,
            3.5545,
            3.5844,
            3.6146,
            3.6453,
            3.6724,
            3.6999,
            3.7316,
            3.7638,
            3.7964,
            3.8252,
            3.8544,
            3.8882,
            3.9224,
            3.9527,
            3.9833,
            4.0188,
            4.0547,
            4.0911,
            4.1234,
            4.156,
            4.1938,
            4.2321,
            4.2709,
            4.3053,
            4.3402,
            4.3805,
            4.4214,
            4.4629,
            4.4997,
            4.5369,
            4.58,
            4.6238,
            4.6681,
            4.7075,
            4.7473,
            4.7935,
            4.8404,
            4.8819,
            4.924,
            4.9728,
            5.0228,
            5.071,
            5.1183,
            5.1661,
            5.2164,
            5.2674,
            5.3193,
            5.3699,
            5.4214,
            5.4755,
            5.5304,
            5.5843,
            5.6388,
            5.6962,
            5.7545,
            5.8136,
            5.8716,
            5.9306,
            5.995,
            6.0578,
            6.1217,
            6.1845,
            6.2483,
            6.3152,
            6.3832,
            6.4502,
            6.5181,
            6.5894,
            6.662,
            6.7358,
            6.8082,
            6.882,
            6.9595,
            7.0383,
            7.1159,
            7.1946,
            7.2775,
            7.3618,
            7.4474,
            7.5318,
            7.6179,
            7.7082,
            7.8,
            7.8906,
            7.983,
            8.0837,
            8.1823,
            8.2828,
            8.3821,
            8.4833,
            8.5893,
            8.6974,
            8.8045,
            8.9134,
            9.0276,
            9.1442,
            9.2597,
            9.3773,
            9.5006,
            9.6265,
            9.755,
            9.8822,
            10.012,
            10.148,
            10.287,
            10.425,
            10.566,
            10.713,
            10.864,
            11.008,
            11.161,
            11.321,
            11.485,
            11.648,
            11.814,
            11.99,
            12.169,
            12.353,
            12.534,
            12.719,
            12.916,
            13.117,
            13.316,
            13.519,
            13.735,
            13.956,
            14.174,
            14.398,
            14.635,
            14.878,
            15.108,
            15.355,
            15.617,
            15.876,
            16.141,
            16.424,
            16.713,
            17.001,
            17.295,
            17.596,
            17.917,
            18.237,
            18.566,
            18.914,
            19.272,
            19.629,
            19.982,
            20.371,
            20.76,
            21.161,
            21.586,
            22.024,
            22.462,
            22.895,
            23.374,
            23.855,
            24.328,
            24.854,
            25.397,
            25.942,
            26.505,
            27.079,
            27.681,
            28.302,
            28.937,
            29.621
          ],
          [
            2.968,
            3.0112,
            2.9525,
            3.1059,
            3.101,
            3.0774,
            3.2186,
            3.1659,
            3.2378,
            3.2285,
            3.2528,
            3.2493,
            3.3717,
            3.3663,
            3.4302,
            3.4973,
            3.5547,
            3.5201,
            3.5283,
            3.5943,
            3.6239,
            3.6825,
            3.7084,
            3.6999,
            3.7345,
            3.8053,
            3.786,
            3.8998,
            3.965,
            3.9786,
            4.0743,
            4.0546,
            4.1229,
            4.0403,
            4.221,
            4.1576,
            4.325,
            4.3248,
            4.3375,
            4.4175,
            4.4509,
            4.4662,
            4.5556,
            4.5515,
            4.6243,
            4.7119,
            4.7354,
            4.7802,
            4.7976,
            4.8017,
            4.949,
            5.0183,
            5.024,
            5.0378,
            5.1152,
            5.1472,
            5.2431,
            5.3041,
            5.3501,
            5.3766,
            5.4469,
            5.4636,
            5.5659,
            5.644,
            5.6938,
            5.6915,
            5.7641,
            5.7533,
            5.8199,
            5.9607,
            5.9855,
            6.0229,
            6.0747,
            6.1312,
            6.1841,
            6.2295,
            6.243,
            6.3652,
            6.3938,
            6.4334,
            6.4472,
            6.5557,
            6.5298,
            6.6191,
            6.6824,
            6.7617,
            6.7562,
            6.7579,
            6.8754,
            6.9158,
            6.9205,
            6.973,
            6.9286,
            7.0175,
            7.0189,
            7.0323,
            7.1248,
            7.1313,
            7.1658,
            7.2456,
            7.3381,
            7.2755,
            7.3239,
            7.2952,
            7.3512,
            7.3931,
            7.3994,
            7.439,
            7.4592,
            7.502,
            7.5004,
            7.4852,
            7.5681,
            7.5284,
            7.5317,
            7.4986,
            7.5973,
            7.5237,
            7.525,
            7.5636,
            7.602,
            7.6256,
            7.6296,
            7.5353,
            7.6311,
            7.5397,
            7.4978,
            7.5507,
            7.5225,
            7.5853,
            7.5062,
            7.4697,
            7.427,
            7.4348,
            7.4095,
            7.3769,
            7.3999,
            7.3343,
            7.3398,
            7.2876,
            7.3073,
            7.2804,
            7.2063,
            7.1878,
            7.1829,
            7.0767,
            7.1178,
            7.0917,
            7.041,
            6.9516,
            6.9378,
            6.9096,
            6.9068,
            6.7608,
            6.7986,
            6.7993,
            6.7047,
            6.6622,
            6.6998,
            6.4755,
            6.5155,
            6.5209,
            6.5047,
            6.519,
            6.4149,
            6.3596,
            6.2738,
            6.2062,
            6.2479,
            6.2096,
            6.161,
            6.1589,
            6.0483,
            5.9889,
            5.9633,
            5.9367,
            5.9116,
            5.8372,
            5.7852,
            5.7656,
            5.7307,
            5.722,
            5.6491,
            5.5867,
            5.5826,
            5.5187,
            5.5069,
            5.4033,
            5.3973,
            5.3214,
            5.2661,
            5.2788,
            5.2145,
            5.2053,
            5.1922,
            5.1339,
            5.0842,
            5.057,
            5.0555,
            4.9544,
            4.9576,
            4.9388,
            4.8761,
            4.8841,
            4.776,
            4.751,
            4.7055,
            4.6786,
            4.6078,
            4.5798,
            4.5754,
            4.5572,
            4.5438,
            4.5047,
            4.4197,
            4.3854,
            4.401,
            4.3635,
            4.2928,
            4.3372,
            4.2737,
            4.2615,
            4.1976,
            4.1783,
            4.11,
            4.1188,
            4.1028,
            4.0008,
            4.0379,
            3.9847,
            4.0117,
            3.9395,
            3.9242,
            3.9141,
            3.8563,
            3.8752,
            3.8375,
            3.8087,
            3.7808,
            3.7459,
            3.6795,
            3.7211,
            3.6688,
            3.6579,
            3.6516,
            3.6055,
            3.6319,
            3.6133,
            3.5157,
            3.5384,
            3.5038,
            3.4444,
            3.4359,
            3.4297,
            3.4116,
            3.4043,
            3.3473,
            3.383,
            3.3185,
            3.2809,
            3.2911,
            3.2598,
            3.2757,
            3.2006,
            3.1851,
            3.2265,
            3.2053,
            3.1711,
            3.1371,
            3.1464,
            3.1373,
            3.1445,
            3.0878,
            3.0669,
            3.034,
            3.0275,
            3.0046,
            3.0286,
            2.9954,
            2.989,
            3.0083,
            2.9745,
            2.9382,
            2.9221,
            2.8779,
            2.8489,
            2.9011,
            2.9172,
            2.8771,
            2.8509,
            2.8339,
            2.8319,
            2.8331,
            2.7701,
            2.8253,
            2.7435,
            2.7369,
            2.7699,
            2.7441,
            2.6976,
            2.7131,
            2.6847,
            2.6285,
            2.6527,
            2.6391,
            2.6583,
            2.6744,
            2.6412,
            2.6175,
            2.6492,
            2.5922,
            2.5554,
            2.5772,
            2.5831,
            2.5895,
            2.5012,
            2.5056,
            2.555,
            2.4706,
            2.4936,
            2.5435,
            2.5152,
            2.498,
            2.4818,
            2.4302,
            2.4041,
            2.4036,
            2.4374,
            2.4181,
            2.4165,
            2.4109,
            2.3761,
            2.4084,
            2.3844,
            2.396,
            2.3318,
            2.2994,
            2.3105,
            2.3316,
            2.3219,
            2.3097,
            2.2542,
            2.2847,
            2.2718,
            2.2619,
            2.2803,
            2.2462,
            2.2584,
            2.2481,
            2.226,
            2.2104,
            2.2374,
            2.1582,
            2.1472,
            2.2332,
            2.1599,
            2.171,
            2.183,
            2.1316,
            2.1374,
            2.1397,
            2.1074,
            2.1033,
            2.1033,
            2.0899,
            2.0596,
            2.0751,
            2.0565,
            2.0493,
            2.0306,
            2.0115,
            2.0336,
            2.0035,
            1.9878,
            1.9891,
            1.9583,
            1.9601,
            1.9564,
            1.9379,
            1.9218,
            1.9222,
            1.8802,
            1.8892,
            1.8782,
            1.866,
            1.8436,
            1.8426,
            1.8297,
            1.8097,
            1.8049,
            1.7848,
            1.7672,
            1.7688,
            1.7488,
            1.7447,
            1.7343,
            1.708,
            1.6934,
            1.6709,
            1.6551,
            1.665,
            1.6582,
            1.6529,
            1.6261,
            1.593,
            1.5798,
            1.5797,
            1.552,
            1.5446,
            1.5234,
            1.5062,
            1.503,
            1.4903,
            1.4787,
            1.4618,
            1.4239,
            1.4331,
            1.4012,
            1.4075,
            1.3939,
            1.3693,
            1.3672,
            1.3338,
            1.3524,
            1.2885,
            1.3103,
            1.2775,
            1.275,
            1.2296,
            1.2566,
            1.222,
            1.2006,
            1.1965,
            1.1862,
            1.1441,
            1.1698,
            1.133,
            1.1362,
            1.1134,
            1.0948,
            1.0829,
            1.0441,
            1.0445,
            1.0385,
            0.99595,
            1.0261,
            0.96202,
            0.98701,
            0.95196,
            0.9347,
            0.90274,
            0.91359,
            0.94655,
            0.88061,
            0.87493,
            0.84514,
            0.83737,
            0.82863,
            0.80189,
            0.7496,
            0.79304,
            0.74733,
            0.73634,
            0.7266,
            0.7036,
            0.72939,
            0.69239,
            0.76139,
            0.72482,
            0.63446,
            0.67796,
            0.6805,
            0.61578,
            0.60948,
            0.60062,
            0.59099,
            0.52706,
            0.62784,
            0.58171,
            0.56001,
            0.54839,
            0.51064
          ],
          [
            0.032534,
            0.032604,
            0.033964,
            0.038469,
            0.032227,
            0.031783,
            0.032697,
            0.033995,
            0.040815,
            0.034218,
            0.033264,
            0.032557,
            0.032265,
            0.036179,
            0.031469,
            0.031182,
            0.03097,
            0.031589,
            0.03666,
            0.031758,
            0.032171,
            0.033962,
            0.038063,
            0.032286,
            0.032936,
            0.032558,
            0.03127,
            0.036817,
            0.033176,
            0.03357,
            0.034594,
            0.036146,
            0.044144,
            0.037235,
            0.034738,
            0.033917,
            0.033647,
            0.038292,
            0.032627,
            0.03213,
            0.032307,
            0.033447,
            0.039223,
            0.033052,
            0.032911,
            0.033103,
            0.037631,
            0.032236,
            0.031583,
            0.031406,
            0.03213,
            0.037298,
            0.033498,
            0.033787,
            0.032898,
            0.033557,
            0.038,
            0.032582,
            0.031884,
            0.032336,
            0.032594,
            0.03664,
            0.031612,
            0.031727,
            0.030936,
            0.030337,
            0.035315,
            0.03075,
            0.030688,
            0.030918,
            0.030679,
            0.035096,
            0.031349,
            0.031597,
            0.032144,
            0.033003,
            0.0369,
            0.031225,
            0.032092,
            0.033725,
            0.03414,
            0.038707,
            0.033133,
            0.034166,
            0.034611,
            0.036191,
            0.042286,
            0.036239,
            0.037072,
            0.037795,
            0.038101,
            0.04389,
            0.038253,
            0.039687,
            0.040299,
            0.040673,
            0.046875,
            0.040522,
            0.040089,
            0.040329,
            0.039859,
            0.045341,
            0.040019,
            0.040434,
            0.03911,
            0.038271,
            0.043517,
            0.037277,
            0.036356,
            0.035555,
            0.034956,
            0.040342,
            0.036197,
            0.037165,
            0.036712,
            0.036474,
            0.044161,
            0.039434,
            0.041584,
            0.041298,
            0.039309,
            0.043537,
            0.037097,
            0.036001,
            0.03738,
            0.038098,
            0.0432,
            0.038181,
            0.038042,
            0.037234,
            0.036802,
            0.04332,
            0.035822,
            0.034917,
            0.035169,
            0.040942,
            0.035606,
            0.034916,
            0.035026,
            0.036317,
            0.04265,
            0.036282,
            0.034757,
            0.035743,
            0.036768,
            0.04182,
            0.035594,
            0.035604,
            0.035817,
            0.035163,
            0.041719,
            0.035886,
            0.036051,
            0.035793,
            0.036279,
            0.041034,
            0.034489,
            0.034156,
            0.034827,
            0.034243,
            0.038049,
            0.031031,
            0.030535,
            0.031841,
            0.032167,
            0.036602,
            0.031542,
            0.030854,
            0.030108,
            0.029719,
            0.029925,
            0.035141,
            0.030034,
            0.02937,
            0.02842,
            0.02836,
            0.032864,
            0.027803,
            0.027132,
            0.026615,
            0.026367,
            0.030744,
            0.026792,
            0.026981,
            0.027489,
            0.027627,
            0.030933,
            0.026108,
            0.02597,
            0.025572,
            0.025666,
            0.030667,
            0.027356,
            0.026872,
            0.025876,
            0.025157,
            0.028485,
            0.024461,
            0.025824,
            0.025725,
            0.025186,
            0.028562,
            0.024728,
            0.025249,
            0.025014,
            0.02487,
            0.028606,
            0.025005,
            0.026304,
            0.026064,
            0.025177,
            0.02881,
            0.025037,
            0.024612,
            0.02406,
            0.02339,
            0.026884,
            0.023727,
            0.023189,
            0.023272,
            0.023035,
            0.02656,
            0.023184,
            0.023883,
            0.024299,
            0.024132,
            0.027677,
            0.023974,
            0.023604,
            0.022732,
            0.022454,
            0.026217,
            0.023147,
            0.023402,
            0.023285,
            0.023443,
            0.027115,
            0.023081,
            0.024521,
            0.024287,
            0.02314,
            0.026612,
            0.022687,
            0.022648,
            0.022913,
            0.023184,
            0.026647,
            0.023087,
            0.023165,
            0.023073,
            0.022789,
            0.026187,
            0.02274,
            0.023037,
            0.02291,
            0.02316,
            0.026268,
            0.022626,
            0.022743,
            0.022023,
            0.022302,
            0.026512,
            0.023506,
            0.023526,
            0.02317,
            0.022954,
            0.02722,
            0.024559,
            0.025104,
            0.024677,
            0.024614,
            0.029005,
            0.025436,
            0.024536,
            0.024264,
            0.028039,
            0.024346,
            0.02447,
            0.023988,
            0.024113,
            0.027996,
            0.024112,
            0.024447,
            0.025319,
            0.024682,
            0.027846,
            0.024239,
            0.024683,
            0.025023,
            0.025518,
            0.029731,
            0.026168,
            0.026123,
            0.025098,
            0.025059,
            0.028364,
            0.024399,
            0.02477,
            0.024929,
            0.025053,
            0.029303,
            0.025442,
            0.025883,
            0.026644,
            0.026571,
            0.031203,
            0.027044,
            0.026758,
            0.026828,
            0.027091,
            0.03144,
            0.026639,
            0.026678,
            0.027076,
            0.027382,
            0.031442,
            0.0274,
            0.027721,
            0.027599,
            0.027112,
            0.030901,
            0.026837,
            0.026922,
            0.027634,
            0.027207,
            0.030643,
            0.026116,
            0.025934,
            0.026121,
            0.030068,
            0.02579,
            0.025727,
            0.025511,
            0.02498,
            0.028914,
            0.025243,
            0.025638,
            0.025007,
            0.024611,
            0.028553,
            0.025202,
            0.024803,
            0.024036,
            0.023672,
            0.027297,
            0.023789,
            0.023722,
            0.023753,
            0.023346,
            0.026501,
            0.022523,
            0.022776,
            0.022745,
            0.02597,
            0.022294,
            0.022196,
            0.011739,
            0.011414,
            0.012624,
            0.011545,
            0.011697,
            0.01117,
            0.011667,
            0.011628,
            0.011341,
            0.010636,
            0.010951,
            0.011123,
            0.011272,
            0.010662,
            0.010842,
            0.010309,
            0.011067,
            0.010371,
            0.01008,
            0.010385,
            0.0099358,
            0.010669,
            0.0099446,
            0.010398,
            0.0098762,
            0.010538,
            0.0097235,
            0.010085,
            0.0096033,
            0.0099206,
            0.0099103,
            0.0098763,
            0.0094974,
            0.0099303,
            0.0098839,
            0.01013,
            0.0098006,
            0.010303,
            0.0099645,
            0.010598,
            0.0098536,
            0.01032,
            0.010039,
            0.010817,
            0.0099292,
            0.0097984,
            0.010319,
            0.0099793,
            0.010771,
            0.010074,
            0.010577,
            0.010334,
            0.011204,
            0.010428,
            0.010973,
            0.01066,
            0.011518,
            0.010865,
            0.011469,
            0.011178,
            0.011911,
            0.011727,
            0.012069,
            0.011764,
            0.012381,
            0.012247,
            0.012598,
            0.01219,
            0.012853,
            0.0134,
            0.012715,
            0.013422,
            0.013074,
            0.014078,
            0.012793,
            0.013357,
            0.013027,
            0.013779,
            0.013876,
            0.014116,
            0.013712,
            0.014503,
            0.014595,
            0.014883,
            0.014504,
            0.015248,
            0.015365,
            0.015609,
            0.015229,
            0.016048,
            0.016772,
            0.015811,
            0.01666,
            0.016724,
            0.017122,
            0.016636,
            0.017529,
            0.017711,
            0.0182,
            0.018461,
            0.018027,
            0.019695,
            0.018672,
            0.019826,
            0.019463,
            0.021326,
            0.021023,
            0.020472,
            0.02255,
            0.021436,
            0.02288,
            0.022526,
            0.024558,
            0.024499,
            0.024156,
            0.026671,
            0.026381,
            0.026248,
            0.02841,
            0.028758,
            0.030393,
            0.031276,
            0.031975,
            0.033907,
            0.035361,
            0.035446
          ]
        ]
      }
    },
    "003": {
      "common": {
        "heads": [
          "EN-RSL"
        ],
        "units": [
          "NSEC/M"
        ],
        "data": [
          [
            0.09
          ]
        ]
      },
      "data": {
        "heads": [
          "EN",
          "DATA",
          "ERR-S"
        ],
        "units": [
          "MEV",
          "B",
          "B"
        ],
        "data": [
          [
            0.70023,
            0.70113,
            0.70255,
            0.70397,
            0.7054,
            0.70684,
            0.70827,
            0.70985,
            0.71129,
            0.71274,
            0.7142,
            0.71566,
            0.71712,
            0.71859,
            0.72006,
            0.72154,
            0.72302,
            0.72451,
            0.726,
            0.7275,
            0.729,
            0.7305,
            0.73202,
            0.73353,
            0.73519,
            0.73671,
            0.73824,
            0.73978,
            0.74131,
            0.74286,
            0.74441,
            0.74596,
            0.74752,
            0.74908,
            0.75065,
            0.75222,
            0.7538,
            0.75538,
            0.75697,
            0.75871,
            0.76031,
            0.76191,
            0.76352,
            0.76513,
            0.76675,
            0.76838,
            0.77001,
            0.77164,
            0.77328,
            0.77492,
            0.77657,
            0.77823,
            0.77989,
            0.78156,
            0.78323,
            0.7849,
            0.78674,
            0.78843,
            0.79012,
            0.79182,
            0.79352,
            0.79523,
            0.79695,
            0.79867,
            0.8004,
            0.80213,
            0.80387,
            0.80561,
            0.80736,
            0.80911,
            0.81087,
            0.81264,
            0.81441,
            0.81635,
            0.81814,
            0.81993,
            0.82172,
            0.82352,
            0.82533,
            0.82715,
            0.82897,
            0.83079,
            0.83262,
            0.83446,
            0.83631,
            0.83816,
            0.84001,
            0.84187,
            0.84391,
            0.84579,
            0.84767,
            0.84956,
            0.85145,
            0.85335,
            0.85526,
            0.85717,
            0.85909,
            0.86102,
            0.86295,
            0.86489,
            0.86684,
            0.86879,
            0.87075,
            0.87271,
            0.87469,
            0.87685,
            0.87883,
            0.88083,
            0.88283,
            0.88483,
            0.88685,
            0.88887,
            0.89089,
            0.89293,
            0.89497,
            0.89702,
            0.89907,
            0.90114,
            0.90321,
            0.90528,
            0.90756,
            0.90965,
            0.91175,
            0.91385,
            0.91597,
            0.91809,
            0.92022,
            0.92235,
            0.92449,
            0.92665,
            0.9288,
            0.93097,
            0.93314,
            0.93532,
            0.93751,
            0.93971,
            0.94191,
            0.94433,
            0.94655,
            0.94877,
            0.95101,
            0.95325,
            0.95551,
            0.95777,
            0.96003,
            0.96231,
            0.96459,
            0.96689,
            0.96919,
            0.9715,
            0.97381,
            0.97614,
            0.97847,
            0.98081,
            0.98338,
            0.98574,
            0.9881,
            0.99048,
            0.99287,
            0.99526,
            0.99766,
            1.0,
            1.0024,
            1.0049,
            1.0073,
            1.0098,
            1.0122,
            1.0147,
            1.0172,
            1.0196,
            1.0221,
            1.0249,
            1.0274,
            1.0299,
            1.0324,
            1.035,
            1.0375,
            1.0401,
            1.0426,
            1.0452,
            1.0478,
            1.0504,
            1.053,
            1.0556,
            1.0582,
            1.0609,
            1.0635,
            1.0662,
            1.0691,
            1.0717,
            1.0744,
            1.0771,
            1.0798,
            1.0826,
            1.0853,
            1.088,
            1.0908,
            1.0935,
            1.0963,
            1.0991,
            1.1019,
            1.1047,
            1.1075,
            1.1105,
            1.1134,
            1.1162,
            1.1191,
            1.1219,
            1.1248,
            1.1277,
            1.1306,
            1.1335,
            1.1364,
            1.1394,
            1.1423,
            1.1453,
            1.1482,
            1.1512,
            1.1542,
            1.1572,
            1.1605,
            1.1635,
            1.1665,
            1.1696,
            1.1727,
            1.1757,
            1.1788,
            1.1819,
            1.185,
            1.1881,
            1.1913,
            1.1944,
            1.1976,
            1.2008,
            1.2039,
            1.2071,
            1.2104,
            1.2139,
            1.2171,
            1.2204,
            1.2236,
            1.2269,
            1.2302,
            1.2335,
            1.2368,
            1.2401,
            1.2435,
            1.2468,
            1.2502,
            1.2536,
            1.257,
            1.2604,
            1.2638,
            1.2673,
            1.2707,
            1.2742,
            1.278,
            1.2815,
            1.285,
            1.2885,
            1.2921,
            1.2956,
            1.2992,
            1.3028,
            1.3064,
            1.31,
            1.3136,
            1.3173,
            1.3209,
            1.3246,
            1.3283,
            1.332,
            1.3357,
            1.3398,
            1.3436,
            1.3473,
            1.3511,
            1.3549,
            1.3587,
            1.3626,
            1.3664,
            1.3703,
            1.3742,
            1.3781,
            1.382,
            1.3859,
            1.3899,
            1.3938,
            1.3978,
            1.4018,
            1.4062,
            1.4103,
            1.4143,
            1.4184,
            1.4225,
            1.4266,
            1.4307,
            1.4349,
            1.439,
            1.4432,
            1.4474,
            1.4516,
            1.4558,
            1.4601,
            1.4644,
            1.4687,
            1.473,
            1.4777,
            1.482,
            1.4864,
            1.4908,
            1.4952,
            1.4996,
            1.5041,
            1.5086,
            1.513,
            1.5176,
            1.5221,
            1.5266,
            1.5312,
            1.5358,
            1.5404,
            1.545,
            1.5497,
            1.5543,
            1.559,
            1.5642,
            1.5689,
            1.5737,
            1.5785,
            1.5833,
            1.5881,
            1.5929,
            1.5978,
            1.6027,
            1.6076,
            1.6126,
            1.6175,
            1.6225,
            1.6275,
            1.6325,
            1.6376,
            1.6427,
            1.6478,
            1.6529,
            1.6585,
            1.6637,
            1.6689,
            1.6741,
            1.6793,
            1.6846,
            1.6899,
            1.6952,
            1.7006,
            1.706,
            1.7114,
            1.7168,
            1.7222,
            1.7277,
            1.7332,
            1.7387,
            1.7443,
            1.7504,
            1.756,
            1.7616,
            1.7673,
            1.773,
            1.7787,
            1.7844,
            1.7902,
            1.796,
            1.8019,
            1.8077,
            1.8136,
            1.8195,
            1.8255,
            1.8314,
            1.8375,
            1.8435,
            1.8496,
            1.8556,
            1.8623,
            1.8685,
            1.8747,
            1.8809,
            1.8871,
            1.8934,
            1.8997,
            1.9061,
            1.9125,
            1.9189,
            1.9253,
            1.9318,
            1.9383,
            1.9448,
            1.9514,
            1.958,
            1.9647,
            1.9713,
            1.978,
            1.9854,
            1.9922,
            1.999,
            2.0058,
            2.0127,
            2.0196,
            2.0266,
            2.0336,
            2.0406,
            2.0477,
            2.0548,
            2.0619,
            2.0691,
            2.0763,
            2.0836,
            2.0909,
            2.0982,
            2.1056,
            2.113,
            2.1204,
            2.1279,
            2.1361,
            2.1437,
            2.1513,
            2.1589,
            2.1666,
            2.1743,
            2.1821,
            2.1899,
            2.1978,
            2.2057,
            2.2136,
            2.2216,
            2.2296,
            2.2377,
            2.2458,
            2.254,
            2.2622,
            2.2704,
            2.2787,
            2.2878,
            2.2962,
            2.3047,
            2.3131,
            2.3217,
            2.3303,
            2.3389,
            2.3475,
            2.3563,
            2.365,
            2.3739,
            2.3827,
            2.3916,
            2.4006,
            2.4096,
            2.4187,
            2.4278,
            2.437,
            2.4462,
            2.4555,
            2.4648,
            2.4751,
            2.4845,
            2.494,
            2.5036,
            2.5132,
            2.5228,
            2.5326,
            2.5423,
            2.5522,
            2.5621,
            2.572,
            2.582,
            2.5921,
            2.6022,
            2.6124,
            2.6226,
            2.6329,
            2.6433,
            2.6537,
            2.6642,
            2.6747,
            2.6863,
            2.697,
            2.7077,
            2.7186,
            2.7294,
            2.7404,
            2.7514,
            2.7624,
            2.7736,
            2.7848,
            2.7961,
            2.8074,
            2.8188,
            2.8303,
            2.8419,
            2.8535,
            2.8652,
            2.877,
            2.8888,
            2.9007,
            2.9127,
            2.9248,
            2.9369,
            2.9502,
            2.9625,
            2.9749,
            2.9873,
            2.9999,
            3.0125,
            3.0252,
            3.0379,
            3.0508,
            3.0637,
            3.0767,
            3.0898,
            3.103,
            3.1163,
            3.1297,
            3.1431,
            3.1566,
            3.1702,
            3.1839,
            3.1977,
            3.2116,
            3.2256,
            3.2396,
            3.2538,
            3.268,
            3.2837,
            3.2981,
            3.3127,
            3.3273,
            3.3421,
            3.3569,
            3.3718,
            3.3869,
            3.402,
            3.4172,
            3.4326,
            3.448,
            3.4636,
            3.4792,
            3.495,
            3.5108,
            3.5268,
            3.5429,
            3.5591,
            3.5754,
            3.5918,
            3.6084,
            3.625,
            3.6418,
            3.6586,
            3.6772,
            3.6943,
            3.7116,
            3.7289,
            3.7464,
            3.764,
            3.7818,
            3.7997,
            3.8177,
            3.8358,
            3.854,
            3.8724,
            3.8909,
            3.9096,
            3.9284,
            3.9473,
            3.9663,
            3.9855,
            4.0049,
            4.0243,
            4.0439,
            4.0637,
            4.0836,
            4.1037,
            4.1239,
            4.1442,
            4.1647,
            4.1854,
            4.2062,
            4.2291,
            4.2502,
            4.2715,
            4.293,
            4.3146,
            4.3364,
            4.3583,
            4.3805,
            4.4028,
            4.4252,
            4.4479,
            4.4707,
            4.4936,
            4.5168,
            4.5401,
            4.5637,
            4.5874,
            4.6113,
            4.6353,
            4.6596,
            4.6841,
            4.7087,
            4.7336,
            4.7586,
            4.7839,
            4.8093,
            4.835,
            4.8609,
            4.8869,
            4.9132,
            4.9397,
            4.9664,
            4.9933,
            5.0205,
            5.0479,
            5.078,
            5.1058,
            5.1339,
            5.1622,
            5.1907,
            5.2195,
            5.2485,
            5.2778,
            5.3073,
            5.3371,
            5.3671,
            5.3973,
            5.4279,
            5.4586,
            5.4897,
            5.521,
            5.5526,
            5.5844,
            5.6166,
            5.649,
            5.6817,
            5.7146,
            5.7479,
            5.7815,
            5.8153,
            5.8495,
            5.8839,
            5.9187,
            5.9538,
            5.9891,
            6.0249,
            6.0609,
            6.0972,
            6.1339,
            6.1709,
            6.2083,
            6.246,
            6.284,
            6.3224,
            6.3611,
            6.4002,
            6.4397,
            6.4795,
            6.5197,
            6.5603,
            6.6012,
            6.6426,
            6.6843,
            6.7264,
            6.769,
            6.8119,
            6.8552,
            6.899,
            6.9432,
            6.9878,
            7.0329,
            7.0784,
            7.1243,
            7.1707,
            7.2175,
            7.2648,
            7.3126,
            7.3608,
            7.4095,
            7.4587,
            7.5084,
            7.5586,
            7.6094,
            7.6606,
            7.7123,
            7.7646,
            7.8174,
            7.8708,
            7.9247,
            7.9791,
            8.0342,
            8.0898,
            8.1459,
            8.2027,
            8.2601,
            8.3181,
            8.3767,
            8.4359,
            8.4957,
            8.5562,
            8.6174,
            8.6792,
            8.7416,
            8.8048,
            8.8686,
            8.9332,
            8.9984,
            9.0644,
            9.1311,
            9.1986,
            9.2668,
            9.3358,
            9.4055,
            9.476,
            9.5474,
            9.6196,
            9.6925,
            9.7664,
            9.841,
            9.9166,
            9.993,
            10.07,
            10.148,
            10.227,
            10.307,
            10.388,
            10.47,
            10.553,
            10.637,
            10.722,
            10.808,
            10.895,
            10.983,
            11.072,
            11.163,
            11.254,
            11.346,
            11.44,
            11.535,
            11.631,
            11.728,
            11.827,
            11.926,
            12.027,
            12.13,
            12.224,
            12.329,
            12.435,
            12.542,
            12.651,
            12.762,
            12.874,
            12.987,
            13.102,
            13.218,
            13.336,
            13.456,
            13.577,
            13.7,
            13.825,
            13.951,
            14.079,
            14.209,
            14.341,
            14.474,
            14.609,
            14.734,
            14.873,
            15.014,
            15.158,
            15.303,
            15.45,
            15.6,
            15.751,
            15.905,
            16.061,
            16.22,
            16.381,
            16.544,
            16.71,
            16.878,
            17.033,
            17.207,
            17.383,
            17.561,
            17.743,
            17.927,
            18.115,
            18.305,
            18.498,
            18.695,
            18.894,
            19.079,
            19.284,
            19.494,
            19.706,
            19.923,
            20.142,
            20.366,
            20.593,
            20.825,
            21.038,
            21.277,
            21.52,
            21.767,
            22.019,
            22.275,
            22.535,
            22.801,
            23.071,
            23.32,
            23.6,
            23.884,
            24.174,
            24.469,
            24.77,
            25.076,
            25.359,
            25.677,
            26.0,
            26.33,
            26.666,
            26.978,
            27.327,
            27.682,
            28.045,
            28.415,
            28.793,
            29.178,
            29.536,
            29.936
          ],
          [
            2.827,
            2.6493,
            2.7835,
            2.6616,
            2.6565,
            2.6413,
            2.8343,
            2.667,
            2.6459,
            2.8549,
            2.8172,
            2.7814,
            2.773,
            2.7091,
            2.6699,
            2.6865,
            2.8435,
            2.6486,
            2.7199,
            2.6022,
            2.6882,
            2.69,
            2.6646,
            2.7485,
            2.7387,
            2.6451,
            2.7447,
            2.6994,
            2.6917,
            2.7606,
            2.8315,
            2.6608,
            2.7031,
            2.8367,
            2.7527,
            2.7611,
            2.7187,
            2.7705,
            2.7902,
            2.7638,
            2.727,
            2.7655,
            2.7556,
            2.7274,
            2.6985,
            2.7947,
            2.6926,
            2.7369,
            2.6935,
            2.701,
            2.7046,
            2.7716,
            2.8423,
            2.7022,
            2.7349,
            2.6684,
            2.5725,
            2.7072,
            2.7688,
            2.6903,
            2.8035,
            2.7049,
            2.7007,
            2.8011,
            2.736,
            2.7148,
            2.6995,
            2.6481,
            2.7526,
            2.6101,
            2.7562,
            2.7341,
            2.7446,
            2.6815,
            2.7691,
            2.6691,
            2.6777,
            2.7098,
            2.772,
            2.7253,
            2.8011,
            2.6879,
            2.7642,
            2.7329,
            2.6998,
            2.6819,
            2.8522,
            2.818,
            2.7252,
            2.7415,
            2.7295,
            2.7544,
            2.7144,
            2.7061,
            2.6528,
            2.7264,
            2.736,
            2.7935,
            2.7925,
            2.7208,
            2.6707,
            2.8114,
            2.6464,
            2.7383,
            2.7521,
            2.7099,
            2.7396,
            2.6919,
            2.8023,
            2.7541,
            2.7349,
            2.668,
            2.7055,
            2.6693,
            2.7035,
            2.7388,
            2.7559,
            2.7367,
            2.8017,
            2.7749,
            2.7738,
            2.7471,
            2.7661,
            2.7187,
            2.7857,
            2.7685,
            2.8017,
            2.7061,
            2.7701,
            2.7495,
            2.7153,
            2.768,
            2.7601,
            2.7413,
            2.7796,
            2.7755,
            2.718,
            2.7769,
            2.7535,
            2.7818,
            2.7573,
            2.7441,
            2.7874,
            2.7677,
            2.6916,
            2.7397,
            2.8189,
            2.8284,
            2.7771,
            2.8244,
            2.7169,
            2.7673,
            2.7981,
            2.791,
            2.8425,
            2.751,
            2.7645,
            2.7348,
            2.7466,
            2.7595,
            2.7677,
            2.7913,
            2.81,
            2.7142,
            2.7693,
            2.7659,
            2.7833,
            2.7866,
            2.7943,
            2.8001,
            2.7583,
            2.7677,
            2.7495,
            2.7964,
            2.833,
            2.7864,
            2.7662,
            2.8056,
            2.8144,
            2.7603,
            2.7988,
            2.7402,
            2.867,
            2.7771,
            2.8262,
            2.8528,
            2.7673,
            2.8351,
            2.7842,
            2.8301,
            2.8521,
            2.8229,
            2.807,
            2.7937,
            2.8498,
            2.8295,
            2.8792,
            2.8319,
            2.8671,
            2.8308,
            2.8719,
            2.8732,
            2.8157,
            2.8249,
            2.8139,
            2.823,
            2.8444,
            2.9039,
            2.9157,
            2.9004,
            2.8444,
            2.9197,
            2.9072,
            2.872,
            2.8916,
            2.8457,
            2.8675,
            2.8575,
            2.8973,
            2.8878,
            2.9022,
            2.9509,
            2.927,
            2.8964,
            2.917,
            2.8841,
            2.9004,
            2.8759,
            2.9343,
            2.8989,
            2.9415,
            2.9321,
            2.9242,
            2.8891,
            2.9149,
            2.9543,
            2.9713,
            2.9037,
            2.9393,
            2.9693,
            2.9889,
            2.922,
            2.9202,
            2.9723,
            2.9554,
            2.9253,
            3.0306,
            2.9306,
            2.9171,
            2.9694,
            2.9489,
            2.9643,
            2.9928,
            2.9871,
            2.9553,
            2.9847,
            3.0331,
            2.9751,
            2.9378,
            2.9458,
            2.9971,
            3.0049,
            2.9849,
            2.979,
            2.9694,
            2.9453,
            3.0343,
            2.943,
            3.0476,
            3.0212,
            3.0036,
            3.0152,
            2.9781,
            3.0261,
            3.0411,
            3.048,
            3.0201,
            2.9892,
            3.0603,
            3.0428,
            3.0246,
            3.0492,
            3.0818,
            3.0213,
            3.05,
            3.0125,
            3.0742,
            3.0589,
            3.0593,
            3.0857,
            3.0616,
            3.0779,
            3.1282,
            3.068,
            3.0497,
            3.0779,
            3.0911,
            3.1265,
            3.0514,
            3.033,
            3.0611,
            3.0581,
            3.1362,
            3.1087,
            3.1174,
            3.1224,
            3.0998,
            3.1229,
            3.0941,
            3.1567,
            3.1039,
            3.0886,
            3.0781,
            3.162,
            3.1385,
            3.1258,
            3.1362,
            3.1601,
            3.1461,
            3.1351,
            3.1533,
            3.1406,
            3.1265,
            3.1638,
            3.1406,
            3.1196,
            3.1541,
            3.1035,
            3.1732,
            3.1478,
            3.1696,
            3.1762,
            3.1453,
            3.1254,
            3.1413,
            3.1143,
            3.2027,
            3.1388,
            3.1429,
            3.1649,
            3.1701,
            3.2128,
            3.1903,
            3.1361,
            3.1902,
            3.1436,
            3.187,
            3.1197,
            3.1511,
            3.1828,
            3.1927,
            3.1261,
            3.1889,
            3.1461,
            3.1709,
            3.1779,
            3.2119,
            3.2018,
            3.1979,
            3.1779,
            3.1865,
            3.1692,
            3.1801,
            3.2096,
            3.1695,
            3.1589,
            3.1768,
            3.1774,
            3.1905,
            3.229,
            3.2018,
            3.1779,
            3.2162,
            3.2002,
            3.2042,
            3.1721,
            3.1883,
            3.1241,
            3.1889,
            3.162,
            3.2603,
            3.217,
            3.1928,
            3.1875,
            3.2494,
            3.1861,
            3.1664,
            3.1977,
            3.1841,
            3.2214,
            3.1658,
            3.1675,
            3.1935,
            3.2106,
            3.2232,
            3.1974,
            3.208,
            3.1949,
            3.2188,
            3.1707,
            3.1688,
            3.2038,
            3.1935,
            3.1898,
            3.1797,
            3.216,
            3.1974,
            3.1779,
            3.202,
            3.1889,
            3.2035,
            3.1729,
            3.1249,
            3.1941,
            3.1916,
            3.1729,
            3.1418,
            3.1491,
            3.1483,
            3.1783,
            3.1332,
            3.1437,
            3.1732,
            3.1719,
            3.1073,
            3.1672,
            3.1814,
            3.2109,
            3.1149,
            3.1316,
            3.1406,
            3.1296,
            3.1575,
            3.1662,
            3.1772,
            3.1176,
            3.132,
            3.1201,
            3.1173,
            3.1324,
            3.1287,
            3.135,
            3.1196,
            3.1171,
            3.1428,
            3.0981,
            3.0561,
            3.052,
            3.1074,
            3.1051,
            3.1176,
            3.0891,
            3.0654,
            3.0822,
            3.1288,
            3.0821,
            3.065,
            3.0748,
            3.0673,
            3.1238,
            3.0817,
            3.0763,
            3.0719,
            3.0783,
            3.0516,
            3.0542,
            3.0472,
            3.0938,
            3.0536,
            3.0603,
            3.0262,
            3.041,
            3.06,
            3.0325,
            3.0409,
            3.0265,
            3.0822,
            3.0392,
            2.9811,
            3.0007,
            3.0287,
            3.0229,
            3.0345,
            3.0439,
            3.0128,
            2.9665,
            2.9968,
            2.9822,
            2.9649,
            2.9689,
            2.972,
            2.943,
            2.999,
            2.9978,
            2.9678,
            2.941,
            2.9881,
            2.9539,
            2.9373,
            2.9404,
            2.9781,
            2.9679,
            2.9785,
            2.9513,
            2.9594,
            2.8871,
            2.9299,
            2.8996,
            2.9163,
            2.901,
            2.8752,
            2.9256,
            2.9161,
            2.9069,
            2.9102,
            2.8704,
            2.8643,
            2.879,
            2.8845,
            2.9096,
            2.9056,
            2.8843,
            2.8672,
            2.8332,
            2.8363,
            2.8413,
            2.8575,
            2.8052,
            2.8511,
            2.8392,
            2.8282,
            2.8106,
            2.8108,
            2.8063,
            2.8151,
            2.8339,
            2.7655,
            2.7421,
            2.8,
            2.7983,
            2.775,
            2.8195,
            2.7247,
            2.7499,
            2.7865,
            2.7608,
            2.7647,
            2.7097,
            2.7309,
            2.7221,
            2.7512,
            2.685,
            2.7413,
            2.7295,
            2.7149,
            2.7422,
            2.6746,
            2.6835,
            2.7083,
            2.681,
            2.6359,
            2.6413,
            2.6805,
            2.6344,
            2.6382,
            2.6202,
            2.6439,
            2.6119,
            2.6197,
            2.5984,
            2.6025,
            2.6582,
            2.6119,
            2.6012,
            2.5754,
            2.6166,
            2.5694,
            2.5761,
            2.5874,
            2.5761,
            2.5579,
            2.5724,
            2.5991,
            2.5521,
            2.538,
            2.5052,
            2.5327,
            2.5429,
            2.5258,
            2.4965,
            2.5395,
            2.4864,
            2.5245,
            2.4467,
            2.5086,
            2.4776,
            2.5225,
            2.4575,
            2.4846,
            2.4891,
            2.4473,
            2.4537,
            2.4733,
            2.4669,
            2.4194,
            2.4104,
            2.4315,
            2.4072,
            2.4075,
            2.4041,
            2.388,
            2.3694,
            2.3806,
            2.385,
            2.3976,
            2.3847,
            2.3446,
            2.331,
            2.337,
            2.3187,
            2.3472,
            2.3016,
            2.337,
            2.3271,
            2.2859,
            2.323,
            2.2906,
            2.3063,
            2.2756,
            2.2637,
            2.2566,
            2.2535,
            2.2254,
            2.2605,
            2.2497,
            2.2596,
            2.2414,
            2.2367,
            2.1534,
            2.1955,
            2.1805,
            2.1912,
            2.167,
            2.1589,
            2.1727,
            2.1458,
            2.1479,
            2.1497,
            2.1373,
            2.1102,
            2.1134,
            2.1114,
            2.0897,
            2.1145,
            2.1168,
            2.0784,
            2.0789,
            2.0945,
            2.0516,
            2.0518,
            2.038,
            2.0386,
            2.0307,
            2.0185,
            2.0123,
            1.9969,
            1.9965,
            2.0007,
            1.9814,
            1.9773,
            1.9488,
            1.9614,
            1.9458,
            1.9354,
            1.9349,
            1.8984,
            1.9475,
            1.9233,
            1.9184,
            1.9144,
            1.8703,
            1.8935,
            1.853,
            1.8611,
            1.8524,
            1.8591,
            1.8459,
            1.857,
            1.8356,
            1.8196,
            1.7948,
            1.799,
            1.7728,
            1.7695,
            1.787,
            1.7231,
            1.7609,
            1.7398,
            1.7278,
            1.7251,
            1.7155,
            1.6974,
            1.7175,
            1.7028,
            1.6756,
            1.716,
            1.6636,
            1.6721,
            1.6525,
            1.633,
            1.6598,
            1.6186,
            1.6187,
            1.5991,
            1.6304,
            1.6204,
            1.5873,
            1.5824,
            1.5518,
            1.5697,
            1.5694,
            1.5289,
            1.5469,
            1.518,
            1.5434,
            1.5372,
            1.53,
            1.5119,
            1.4671,
            1.4835,
            1.4826,
            1.4579,
            1.4348,
            1.4513,
            1.4228,
            1.399,
            1.4152,
            1.3985,
            1.3892,
            1.3938,
            1.3787,
            1.3828,
            1.339,
            1.3502,
            1.3234,
            1.3508,
            1.3016,
            1.3244,
            1.2834,
            1.2941,
            1.2831,
            1.3024,
            1.2786,
            1.2614,
            1.2581,
            1.23,
            1.2784,
            1.1963,
            1.2104,
            1.1816,
            1.2178,
            1.168,
            1.187,
            1.1313,
            1.171,
            1.1621,
            1.1215,
            1.0887,
            1.1293,
            1.1186,
            1.1075,
            1.0976,
            1.0397,
            1.0335,
            1.0513,
            1.1137,
            1.0839,
            1.0515,
            1.0513,
            1.003,
            1.0312,
            0.97372,
            1.0119,
            1.01,
            1.0264,
            0.99729,
            0.96214,
            0.94032,
            0.96219,
            0.90919,
            0.95948,
            0.93124,
            0.88769,
            0.93655,
            0.89677,
            0.86546,
            0.94182,
            0.87848,
            0.89255,
            0.8766,
            0.83963,
            0.88963,
            0.87689,
            0.92729,
            0.90064,
            0.90154,
            0.78295,
            0.76386,
            0.77644,
            0.77284,
            0.85996,
            0.7699,
            0.76733,
            0.67641,
            0.7172,
            0.77604,
            0.65691,
            0.69738,
            0.77795,
            0.79694,
            0.63043,
            0.72438,
            0.57281,
            0.62905,
            0.63633,
            0.71367,
            0.59629,
            0.6295,
            0.6134,
            0.66204,
            0.60805,
            0.69184,
            0.61864,
            0.52246,
            0.539
          ],
          [
            0.010269,
            0.065374,
            0.0595,
            0.063298,
            0.059711,
            0.068339,
            0.061547,
            0.059012,
            0.063631,
            0.057417,
            0.061793,
            0.056099,
            0.065276,
            0.05956,
            0.065486,
            0.063234,
            0.0685,
            0.058805,
            0.063309,
            0.058891,
            0.063256,
            0.055806,
            0.061521,
            0.054923,
            0.052886,
            0.058348,
            0.054402,
            0.058225,
            0.052893,
            0.057451,
            0.053141,
            0.058555,
            0.053168,
            0.05743,
            0.052822,
            0.056481,
            0.05274,
            0.059866,
            0.055938,
            0.054325,
            0.058647,
            0.052164,
            0.056671,
            0.054002,
            0.059077,
            0.051526,
            0.054434,
            0.050194,
            0.055612,
            0.051805,
            0.057564,
            0.052831,
            0.057456,
            0.053405,
            0.059569,
            0.05543,
            0.058163,
            0.064763,
            0.057232,
            0.05991,
            0.05331,
            0.055976,
            0.050852,
            0.05578,
            0.050851,
            0.054455,
            0.048875,
            0.053107,
            0.047776,
            0.051524,
            0.04707,
            0.051679,
            0.048839,
            0.049936,
            0.053286,
            0.048028,
            0.051853,
            0.046778,
            0.051248,
            0.046662,
            0.051475,
            0.045349,
            0.049081,
            0.044745,
            0.048547,
            0.043283,
            0.047385,
            0.043353,
            0.043289,
            0.048291,
            0.043179,
            0.049139,
            0.047789,
            0.049091,
            0.04273,
            0.047859,
            0.044264,
            0.04813,
            0.042665,
            0.046828,
            0.042022,
            0.044755,
            0.040421,
            0.04519,
            0.041026,
            0.040948,
            0.044706,
            0.039166,
            0.042494,
            0.039283,
            0.04276,
            0.038209,
            0.041186,
            0.037093,
            0.040026,
            0.036623,
            0.040034,
            0.03711,
            0.039676,
            0.036009,
            0.035985,
            0.039029,
            0.03564,
            0.038755,
            0.034668,
            0.038647,
            0.035994,
            0.038939,
            0.035465,
            0.038926,
            0.036366,
            0.040585,
            0.035738,
            0.038298,
            0.033506,
            0.036845,
            0.034332,
            0.035629,
            0.039437,
            0.036432,
            0.0399,
            0.034988,
            0.037903,
            0.034874,
            0.037868,
            0.035413,
            0.038529,
            0.035272,
            0.03908,
            0.037079,
            0.039655,
            0.036002,
            0.039416,
            0.036176,
            0.035784,
            0.04042,
            0.037329,
            0.040061,
            0.036841,
            0.040084,
            0.036333,
            0.040609,
            0.037728,
            0.04134,
            0.038231,
            0.042062,
            0.038005,
            0.041136,
            0.037637,
            0.041201,
            0.036948,
            0.037082,
            0.040517,
            0.03708,
            0.039388,
            0.035334,
            0.038799,
            0.035415,
            0.03989,
            0.036322,
            0.038954,
            0.034478,
            0.037276,
            0.033849,
            0.03603,
            0.032874,
            0.035438,
            0.032206,
            0.031631,
            0.033709,
            0.030269,
            0.033015,
            0.029956,
            0.032474,
            0.029961,
            0.033451,
            0.031592,
            0.034247,
            0.031104,
            0.03363,
            0.030333,
            0.0344,
            0.031766,
            0.032051,
            0.036554,
            0.035076,
            0.03812,
            0.034106,
            0.036208,
            0.032052,
            0.034255,
            0.030245,
            0.032869,
            0.030217,
            0.031744,
            0.029211,
            0.032703,
            0.031616,
            0.033181,
            0.030048,
            0.030353,
            0.033832,
            0.030675,
            0.03313,
            0.030005,
            0.032101,
            0.029308,
            0.032683,
            0.030697,
            0.032057,
            0.02835,
            0.030749,
            0.027663,
            0.030879,
            0.02808,
            0.031585,
            0.028517,
            0.028385,
            0.030723,
            0.027552,
            0.030457,
            0.029351,
            0.031538,
            0.029531,
            0.032167,
            0.029106,
            0.030996,
            0.027583,
            0.0308,
            0.029448,
            0.032159,
            0.029248,
            0.031853,
            0.028704,
            0.031061,
            0.028297,
            0.029314,
            0.031793,
            0.028265,
            0.031157,
            0.029624,
            0.032299,
            0.029025,
            0.032082,
            0.029218,
            0.032234,
            0.029449,
            0.032595,
            0.029951,
            0.031908,
            0.028649,
            0.031417,
            0.028059,
            0.028515,
            0.031964,
            0.029261,
            0.03193,
            0.028906,
            0.030262,
            0.026343,
            0.027911,
            0.025594,
            0.028632,
            0.026858,
            0.029829,
            0.027268,
            0.029693,
            0.02693,
            0.029806,
            0.027243,
            0.026667,
            0.028209,
            0.026016,
            0.028051,
            0.025503,
            0.028051,
            0.02579,
            0.028715,
            0.026133,
            0.028485,
            0.025434,
            0.027923,
            0.024703,
            0.026671,
            0.02481,
            0.027034,
            0.024755,
            0.024547,
            0.025953,
            0.02391,
            0.025762,
            0.023421,
            0.025482,
            0.023272,
            0.025722,
            0.023455,
            0.026259,
            0.023696,
            0.026624,
            0.02425,
            0.026701,
            0.024619,
            0.026817,
            0.023655,
            0.025477,
            0.023533,
            0.023091,
            0.02521,
            0.022999,
            0.025176,
            0.023033,
            0.025462,
            0.024477,
            0.027474,
            0.024988,
            0.026201,
            0.023823,
            0.02549,
            0.022504,
            0.02496,
            0.022252,
            0.02434,
            0.021898,
            0.0247,
            0.024598,
            0.023506,
            0.025226,
            0.023016,
            0.024912,
            0.022443,
            0.024546,
            0.022612,
            0.025154,
            0.02323,
            0.024902,
            0.022788,
            0.024896,
            0.022862,
            0.025089,
            0.022604,
            0.02574,
            0.024692,
            0.024218,
            0.026148,
            0.023176,
            0.025095,
            0.022804,
            0.025344,
            0.023411,
            0.025049,
            0.022472,
            0.024609,
            0.022087,
            0.023712,
            0.021318,
            0.023565,
            0.021965,
            0.02426,
            0.021322,
            0.023139,
            0.021754,
            0.021471,
            0.023191,
            0.021176,
            0.023134,
            0.021401,
            0.023451,
            0.022024,
            0.02479,
            0.022465,
            0.024349,
            0.022174,
            0.024067,
            0.022405,
            0.023964,
            0.021844,
            0.023849,
            0.021055,
            0.022569,
            0.020601,
            0.02073,
            0.023175,
            0.021443,
            0.023487,
            0.021879,
            0.023693,
            0.021527,
            0.02337,
            0.021613,
            0.024073,
            0.021199,
            0.023189,
            0.021572,
            0.02578,
            0.023108,
            0.023677,
            0.021163,
            0.023358,
            0.021164,
            0.022816,
            0.020764,
            0.020737,
            0.022747,
            0.02096,
            0.023429,
            0.021352,
            0.023107,
            0.021215,
            0.023124,
            0.020868,
            0.023386,
            0.021373,
            0.022882,
            0.021117,
            0.022741,
            0.020844,
            0.02279,
            0.020776,
            0.023057,
            0.02126,
            0.020777,
            0.022912,
            0.021032,
            0.023181,
            0.020627,
            0.022211,
            0.020835,
            0.022553,
            0.020739,
            0.021716,
            0.019801,
            0.022174,
            0.020597,
            0.022777,
            0.021401,
            0.023224,
            0.0211,
            0.023156,
            0.020877,
            0.022269,
            0.020757,
            0.021212,
            0.023574,
            0.022303,
            0.024751,
            0.022695,
            0.024122,
            0.022102,
            0.024053,
            0.021783,
            0.024929,
            0.022727,
            0.024681,
            0.021815,
            0.023752,
            0.02175,
            0.023562,
            0.021723,
            0.023693,
            0.021493,
            0.024346,
            0.021344,
            0.02121,
            0.023432,
            0.021219,
            0.023729,
            0.021383,
            0.02312,
            0.021154,
            0.023955,
            0.022251,
            0.02463,
            0.021991,
            0.023415,
            0.021538,
            0.023452,
            0.021357,
            0.023634,
            0.021775,
            0.024114,
            0.021905,
            0.024832,
            0.022786,
            0.024694,
            0.022883,
            0.023246,
            0.025542,
            0.02222,
            0.023793,
            0.02175,
            0.02429,
            0.021481,
            0.023336,
            0.021062,
            0.023532,
            0.021721,
            0.023685,
            0.021684,
            0.023826,
            0.021907,
            0.024528,
            0.022165,
            0.023785,
            0.022125,
            0.024752,
            0.023399,
            0.025048,
            0.022871,
            0.02536,
            0.023316,
            0.02318,
            0.025553,
            0.022961,
            0.025078,
            0.023002,
            0.025452,
            0.023266,
            0.025455,
            0.023005,
            0.024813,
            0.022559,
            0.024995,
            0.022945,
            0.025185,
            0.023243,
            0.025694,
            0.02311,
            0.025371,
            0.02329,
            0.02609,
            0.023634,
            0.025614,
            0.023344,
            0.025151,
            0.022761,
            0.02257,
            0.024969,
            0.022798,
            0.02496,
            0.022854,
            0.02598,
            0.023429,
            0.024976,
            0.022359,
            0.02432,
            0.021916,
            0.024099,
            0.02183,
            0.02419,
            0.021933,
            0.024048,
            0.021759,
            0.02371,
            0.02167,
            0.023719,
            0.021508,
            0.023263,
            0.021124,
            0.022948,
            0.021124,
            0.023232,
            0.02146,
            0.023693,
            0.021157,
            0.020812,
            0.022556,
            0.020497,
            0.022336,
            0.020918,
            0.023024,
            0.020812,
            0.022529,
            0.020187,
            0.021603,
            0.01966,
            0.02157,
            0.019595,
            0.021453,
            0.019756,
            0.021441,
            0.019593,
            0.021379,
            0.019545,
            0.021127,
            0.018903,
            0.020474,
            0.018465,
            0.020351,
            0.018639,
            0.020422,
            0.018692,
            0.020177,
            0.018209,
            0.019981,
            0.018252,
            0.019766,
            0.01807,
            0.019988,
            0.018369,
            0.018502,
            0.020696,
            0.019058,
            0.020396,
            0.018416,
            0.019729,
            0.018094,
            0.019779,
            0.018108,
            0.019896,
            0.018182,
            0.019688,
            0.017569,
            0.019023,
            0.01723,
            0.018748,
            0.017244,
            0.019269,
            0.017625,
            0.019292,
            0.017362,
            0.018777,
            0.016943,
            0.018395,
            0.016751,
            0.018295,
            0.016692,
            0.018706,
            0.016598,
            0.018015,
            0.016395,
            0.017784,
            0.016279,
            0.017706,
            0.01609,
            0.017747,
            0.0162,
            0.017889,
            0.016204,
            0.017529,
            0.016046,
            0.017505,
            0.015861,
            0.017274,
            0.015803,
            0.01721,
            0.015582,
            0.01698,
            0.015507,
            0.016991,
            0.015544,
            0.016844,
            0.015396,
            0.016824,
            0.015379,
            0.016917,
            0.015469,
            0.016983,
            0.015661,
            0.017406,
            0.015887,
            0.017491,
            0.016073,
            0.017725,
            0.016132,
            0.017545,
            0.015977,
            0.017617,
            0.016085,
            0.017709,
            0.016358,
            0.018039,
            0.016425,
            0.017952,
            0.016122,
            0.017476,
            0.016006,
            0.017656,
            0.016191,
            0.017791,
            0.016287,
            0.01796,
            0.01647,
            0.01803,
            0.016598,
            0.01822,
            0.016866,
            0.018691,
            0.017076,
            0.018713,
            0.017117,
            0.018897,
            0.017493,
            0.019237,
            0.017671,
            0.019523,
            0.017907,
            0.019784,
            0.018252,
            0.020088,
            0.01854,
            0.020427,
            0.018898,
            0.020743,
            0.019049,
            0.020967,
            0.019317,
            0.021409,
            0.019672,
            0.021655,
            0.019805,
            0.021843,
            0.020125,
            0.022109,
            0.020406,
            0.022518,
            0.020754,
            0.02288,
            0.021157,
            0.023345,
            0.021497,
            0.023685,
            0.021816,
            0.024146,
            0.022236,
            0.024556,
            0.02266,
            0.02492,
            0.022762,
            0.025071,
            0.025288,
            0.023359,
            0.025853,
            0.023772,
            0.026313,
            0.024185,
            0.026557,
            0.024378,
            0.026946,
            0.024867,
            0.027607,
            0.025256,
            0.0281,
            0.025713,
            0.028331,
            0.026185,
            0.028757,
            0.026484,
            0.029187,
            0.026915,
            0.029733,
            0.029916,
            0.027569,
            0.030408,
            0.027846,
            0.030769,
            0.028415,
            0.031338,
            0.028851,
            0.031915,
            0.029358,
            0.032188,
            0.029616,
            0.032587,
            0.030112,
            0.033389,
            0.033849,
            0.031063,
            0.034412,
            0.031668,
            0.035236,
            0.032198,
            0.035681,
            0.032889,
            0.036465,
            0.033914,
            0.037345,
            0.037897,
            0.034822,
            0.038687,
            0.035332,
            0.039112,
            0.036389,
            0.040129,
            0.037028,
            0.041173,
            0.041662,
            0.038525,
            0.042357,
            0.039377,
            0.043745,
            0.040246,
            0.045183,
            0.041338,
            0.046362,
            0.046802,
            0.043252,
            0.048013,
            0.044681,
            0.049526,
            0.045907,
            0.051647,
            0.052276,
            0.048547,
            0.053564,
            0.049949,
            0.055905,
            0.057225,
            0.053105,
            0.059318,
            0.05485,
            0.061636,
            0.057225,
            0.064406,
            0.065968,
            0.061307
          ]
        ]
      }
    },
    "004": {
      "common": {
        "heads": [
          "EN-RSL"
        ],
        "units": [
          "NSEC/M"
        ],
        "data": [
          [
            0.2
          ]
        ]
      },
      "data": {
        "heads": [
          "EN",
          "DATA",
          "ERR-S"
        ],
        "units": [
          "MEV",
          "B",
          "B"
        ],
        "data": [
          [
            3.0217,
            3.052,
            3.0815,
            3.1115,
            3.1431,
            3.174,
            3.2053,
            3.2384,
            3.2707,
            3.3034,
            3.338,
            3.3718,
            3.4062,
            3.4424,
            3.4778,
            3.5138,
            3.5517,
            3.5888,
            3.6265,
            3.6664,
            3.7053,
            3.7449,
            3.785,
            3.8259,
            3.8691,
            3.9113,
            3.9542,
            3.9996,
            4.044,
            4.0891,
            4.1368,
            4.1835,
            4.231,
            4.2813,
            4.3305,
            4.3805,
            4.4335,
            4.4853,
            4.538,
            4.5939,
            4.6486,
            4.7043,
            4.7632,
            4.821,
            4.8798,
            4.9422,
            5.0032,
            5.0654,
            5.1288,
            5.1934,
            5.2618,
            5.329,
            5.3974,
            5.47,
            5.5411,
            5.6137,
            5.6907,
            5.7662,
            5.8433,
            5.9219,
            6.0022,
            6.0873,
            6.171,
            6.2564,
            6.3471,
            6.4361,
            6.5271,
            6.6238,
            6.7188,
            6.8159,
            6.9151,
            7.0165,
            7.1244,
            7.2304,
            7.3389,
            7.4543,
            7.5679,
            7.6841,
            7.803,
            7.9248,
            8.0544,
            8.1821,
            8.3129,
            8.4468,
            8.5841,
            8.7304,
            8.8746,
            9.0225,
            9.1803,
            9.3359,
            9.4956,
            9.6594,
            9.8276,
            10.007,
            10.184,
            10.366,
            10.553,
            10.746,
            10.943,
            11.146,
            11.364,
            11.579,
            11.8,
            12.028,
            12.262,
            12.513,
            12.762,
            13.019,
            13.283,
            13.555,
            13.836,
            14.126,
            14.426,
            14.735,
            15.067,
            15.397,
            15.738,
            16.09,
            16.455,
            16.832,
            17.223,
            17.628,
            18.047,
            18.481,
            18.932,
            19.399,
            19.884,
            20.387,
            20.91,
            21.454,
            22.02,
            22.608,
            23.221,
            23.859,
            24.524,
            25.218,
            25.912,
            26.668,
            27.456,
            28.281,
            29.144
          ],
          [
            2.9194,
            2.9131,
            2.899,
            2.8522,
            2.8704,
            2.8192,
            2.8181,
            2.8528,
            2.8315,
            2.8048,
            2.7946,
            2.7932,
            2.767,
            2.7519,
            2.7437,
            2.7688,
            2.7027,
            2.7049,
            2.7114,
            2.7069,
            2.6895,
            2.6565,
            2.6585,
            2.6633,
            2.6133,
            2.6218,
            2.6341,
            2.5911,
            2.598,
            2.6067,
            2.5491,
            2.5429,
            2.5424,
            2.5328,
            2.5016,
            2.4826,
            2.4785,
            2.4839,
            2.4687,
            2.4344,
            2.4446,
            2.4277,
            2.4071,
            2.4164,
            2.377,
            2.3771,
            2.3576,
            2.3603,
            2.3402,
            2.2983,
            2.2767,
            2.3001,
            2.2503,
            2.2266,
            2.2173,
            2.2275,
            2.1858,
            2.1737,
            2.1765,
            2.1499,
            2.1105,
            2.1097,
            2.0986,
            2.0853,
            2.0545,
            2.039,
            2.0206,
            2.006,
            1.993,
            1.9735,
            1.9457,
            1.9372,
            1.9178,
            1.8713,
            1.881,
            1.8467,
            1.8345,
            1.8106,
            1.8119,
            1.7732,
            1.7815,
            1.7431,
            1.7335,
            1.7191,
            1.6984,
            1.6739,
            1.6527,
            1.6301,
            1.6031,
            1.59,
            1.5585,
            1.5503,
            1.5364,
            1.4951,
            1.4844,
            1.4817,
            1.4386,
            1.4268,
            1.4127,
            1.3923,
            1.3796,
            1.3587,
            1.3233,
            1.2943,
            1.299,
            1.2498,
            1.2354,
            1.2223,
            1.195,
            1.2155,
            1.1592,
            1.1382,
            1.1342,
            1.0784,
            1.1095,
            1.0768,
            1.0337,
            1.0197,
            0.99052,
            1.0193,
            0.97274,
            0.96618,
            0.95882,
            0.92625,
            0.90337,
            0.86916,
            0.86041,
            0.84607,
            0.84411,
            0.772,
            0.79556,
            0.72478,
            0.73481,
            0.69254,
            0.72015,
            0.64222,
            0.70125,
            0.65866,
            0.64359,
            0.6059,
            0.57768
          ],
          [
            0.017627,
            0.017453,
            0.018388,
            0.017766,
            0.017908,
            0.018614,
            0.018528,
            0.018434,
            0.019315,
            0.018361,
            0.01835,
            0.019143,
            0.017976,
            0.017903,
            0.01893,
            0.018092,
            0.018179,
            0.018929,
            0.017798,
            0.01744,
            0.018202,
            0.017756,
            0.018212,
            0.016845,
            0.0166,
            0.017221,
            0.016303,
            0.016201,
            0.01661,
            0.015629,
            0.015723,
            0.016415,
            0.015225,
            0.015122,
            0.015895,
            0.01478,
            0.014238,
            0.014716,
            0.014093,
            0.013965,
            0.014244,
            0.013206,
            0.013136,
            0.013614,
            0.012779,
            0.012633,
            0.013126,
            0.012879,
            0.013426,
            0.012433,
            0.012317,
            0.012794,
            0.011976,
            0.011559,
            0.012073,
            0.011681,
            0.011338,
            0.01153,
            0.010971,
            0.011342,
            0.010627,
            0.010476,
            0.010776,
            0.01035,
            0.010202,
            0.010454,
            0.0099074,
            0.0097259,
            0.010011,
            0.0095465,
            0.0098254,
            0.0094527,
            0.0094991,
            0.010006,
            0.0096661,
            0.0096363,
            0.0099479,
            0.0096097,
            0.010102,
            0.0095233,
            0.009368,
            0.0097937,
            0.0094605,
            0.0098947,
            0.0095926,
            0.0097474,
            0.010163,
            0.0098942,
            0.0099946,
            0.010539,
            0.010263,
            0.010879,
            0.010549,
            0.010692,
            0.011308,
            0.010957,
            0.011541,
            0.011251,
            0.011921,
            0.011638,
            0.011816,
            0.01255,
            0.012225,
            0.012842,
            0.012563,
            0.012792,
            0.013498,
            0.013161,
            0.013922,
            0.013607,
            0.014352,
            0.013999,
            0.014804,
            0.014478,
            0.014686,
            0.015531,
            0.015193,
            0.016023,
            0.01561,
            0.016633,
            0.016308,
            0.017396,
            0.017025,
            0.018086,
            0.017837,
            0.019038,
            0.018668,
            0.019874,
            0.019571,
            0.020954,
            0.020736,
            0.022224,
            0.022037,
            0.023645,
            0.023529,
            0.025522,
            0.026412,
            0.026461,
            0.028747,
            0.028982,
            0.031408
          ]
        ]
      }
    }
  },
  "experimental_conditions": {
    "001": {
      "0": {
        "correction": [
          {
            "x4_code": null,
            "free_txt": [
              "Corrected for background. Inscattering corrections",
              " not necessary."
            ]
          }
        ],
        "detector": [
          {
            "x4_code": "(SCIN)",
            "free_txt": [
              " Liquid scintillator proton recoil detector."
            ]
          }
        ],
        "facility": [
          {
            "x4_code": "(LINAC,1USARPI)",
            "free_txt": [
              " RPI electron linac."
            ]
          }
        ],
        "inc-source": [
          {
            "x4_code": "(PHOTO)",
            "free_txt": []
          }
        ],
        "method": [
          {
            "x4_code": "(TOF)",
            "free_txt": [
              " 252-m flight path."
            ]
          }
        ],
        "status": [
          {
            "x4_code": "(APRVD)",
            "free_txt": [
              " Approved by author.",
              "Data received from C.Goulding, 1 August 1972."
            ]
          }
        ]
      }
    },
    "002": {
      "0": {
        "err-analys": [
          {
            "x4_code": "(ERR-S)",
            "free_txt": [
              " Data error given is statistical error."
            ]
          }
        ],
        "sample": [
          {
            "x4_code": null,
            "free_txt": [
              "99.99% pure natural helium gas. Thickness 0.489 and",
              " 0.311 atoms/b."
            ]
          }
        ]
      }
    },
    "003": {
      "0": {
        "err-analys": [
          {
            "x4_code": "(ERR-S)",
            "free_txt": [
              " Data error given is statistical error."
            ]
          }
        ],
        "sample": [
          {
            "x4_code": null,
            "free_txt": [
              "99.9% enriched 3He gas. Sample thickness 0.302 atoms/b."
            ]
          }
        ]
      }
    },
    "004": {
      "0": {
        "err-analys": [
          {
            "x4_code": "(ERR-S)",
            "free_txt": [
              " Data error given is statistical error."
            ]
          }
        ],
        "sample": [
          {
            "x4_code": null,
            "free_txt": [
              "99.9% enriched 3He gas. Sample thickness 0.302 atoms/b."
            ]
          }
        ]
      }
    }
  }
}