{
  "entry": "12726",
  "last_updated": "2006-07-20",
  "number_of_revisions": "3",
  "histories": [
    {
      "x4_code": "(820803C)",
      "free_txt": []
    }
  ],
  "bib_record": {
    "title": "230-TH FISSION CROSS SECTION NEAR 715 KEV.",
    "authors": [
      {
        "name": "L.R.Veeser"
      },
      {
        "name": "D.W.Muir"
      }
    ],
    "institutes": [
      {
        "x4_code": "(1USALAS)",
        "free_txt": []
      }
    ],
    "references": [
      {
        "x4_code": "(J,PR/C,24,1540,8110)",
        "free_txt": [],
        "publication_year": "1981",
        "pointer": "0"
      }
    ]
  },
  "reactions": {
    "002": {
      "0": {
        "x4_code": "(90-TH-230(N,F),,DA,FF)",
        "children": [
          {
            "code": [
              "90-TH-230",
              [
                "N,F"
              ],
              ",,DA,FF"
            ],
            "type": null,
            "target": "90-TH-230",
            "process": "N,F",
            "sf49": ",,DA,FF",
            "sf4": null,
            "sf5": null,
            "sf6": "DA",
            "sf7": "FF",
            "sf8": null,
            "sf9": null
          }
        ],
        "type": null,
        "free_text": ""
      }
    },
    "003": {
      "0": {
        "x4_code": "(90-TH-230(N,F),,DA,FF)",
        "children": [
          {
            "code": [
              "90-TH-230",
              [
                "N,F"
              ],
              ",,DA,FF"
            ],
            "type": null,
            "target": "90-TH-230",
            "process": "N,F",
            "sf49": ",,DA,FF",
            "sf4": null,
            "sf5": null,
            "sf6": "DA",
            "sf7": "FF",
            "sf8": null,
            "sf9": null
          }
        ],
        "type": null,
        "free_text": ""
      }
    }
  },
  "data_tables": {
    "001": {
      "common": {
        "heads": [
          "EN-RSL-FW",
          "DATA-ERR"
        ],
        "units": [
          "KEV",
          "PER-CENT"
        ],
        "data": [
          [
            1.0
          ],
          [
            20.0
          ]
        ]
      }
    },
    "002": {
      "common": {
        "heads": [
          "ANG"
        ],
        "units": [
          "ADEG"
        ],
        "data": [
          [
            125.0
          ]
        ]
      },
      "data": {
        "heads": [
          "EN",
          "DATA"
        ],
        "units": [
          "KEV",
          "MB/SR"
        ],
        "data": [
          [
            654.07,
            657.53,
            662.23,
            664.64,
            666.29,
            667.45,
            671.32,
            672.74,
            675.76,
            676.65,
            677.65,
            680.65,
            682.06,
            683.31,
            685.34,
            686.76,
            687.88,
            690.84,
            691.87,
            692.64,
            693.21,
            693.77,
            694.34,
            695.38,
            696.1,
            696.78,
            697.4,
            697.97,
            698.39,
            698.96,
            699.28,
            699.59,
            699.8,
            700.17,
            700.48,
            700.85,
            701.32,
            701.53,
            701.9,
            702.16,
            702.32,
            702.63,
            702.9,
            703.05,
            703.32,
            703.63,
            704.05,
            704.32,
            704.58,
            704.9,
            705.22,
            705.43,
            705.64,
            705.85,
            706.06,
            706.22,
            706.43,
            706.54,
            706.7,
            706.81,
            707.02,
            707.07,
            707.23,
            707.55,
            707.71,
            707.92,
            708.24,
            708.51,
            708.77,
            709.04,
            709.2,
            709.41,
            709.68,
            709.84,
            709.89,
            710.05,
            710.16,
            710.27,
            710.43,
            710.54,
            710.7,
            710.86,
            711.02,
            711.23,
            711.29,
            711.39,
            711.5,
            711.55,
            711.71,
            711.77,
            711.87,
            711.98,
            712.09,
            712.09,
            712.2,
            712.2,
            712.3,
            712.36,
            712.41,
            712.47,
            712.47,
            712.63,
            712.73,
            712.79,
            712.95,
            713.22,
            713.38,
            713.54,
            713.7,
            713.92,
            714.08,
            714.24,
            714.56,
            714.89,
            715.16,
            715.43,
            715.7,
            715.97,
            716.13,
            716.19,
            716.46,
            716.56,
            716.73,
            716.78,
            716.94,
            717.11,
            717.27,
            717.38,
            717.49,
            717.54,
            717.65,
            717.92,
            718.08,
            718.14,
            718.41,
            718.63,
            718.85,
            719.17,
            719.34,
            719.55,
            719.88,
            720.15,
            720.37,
            720.7,
            721.08,
            721.36,
            721.52,
            721.9,
            722.12,
            722.4,
            722.67,
            722.95,
            723.16,
            723.44,
            723.66,
            723.99,
            724.43,
            724.82,
            725.09,
            725.42,
            725.81,
            726.14,
            726.31,
            726.58,
            726.75,
            726.91,
            727.08,
            727.25,
            727.41,
            727.8,
            727.97,
            728.13,
            728.41,
            728.63,
            728.8,
            729.13,
            729.36,
            729.58,
            729.8,
            730.19,
            730.53,
            731.08,
            731.36,
            731.81,
            732.09,
            732.31,
            732.48,
            732.87,
            733.43,
            733.88,
            734.33,
            734.78,
            735.12,
            735.23,
            735.74,
            736.08,
            736.53,
            736.92,
            737.21,
            737.49,
            737.77,
            738.11,
            738.45,
            738.85,
            739.42,
            740.04,
            740.44,
            740.61,
            741.07,
            741.41,
            741.81,
            742.21,
            742.49,
            742.83,
            743.18,
            743.46,
            743.92,
            744.38,
            744.73,
            745.76,
            746.97,
            747.83,
            750.73,
            751.72,
            752.24,
            752.83,
            753.35,
            754.23,
            757.22,
            758.1,
            759.05,
            763.14,
            764.45,
            769.07,
            770.4,
            771.79,
            775.8,
            776.9,
            781.63,
            782.99,
            787.46,
            789.21,
            791.6,
            794.18,
            795.77,
            799.9,
            802.01,
            806.59,
            808.99,
            813.36,
            815.92,
            819.29,
            825.68,
            828.5,
            833.31
          ],
          [
            2.56,
            2.88,
            3.04,
            2.65,
            2.59,
            2.69,
            3.04,
            2.91,
            3.2,
            3.1,
            2.97,
            3.07,
            3.33,
            3.55,
            3.62,
            3.71,
            3.71,
            3.97,
            4.0,
            4.16,
            4.2,
            4.2,
            4.26,
            4.23,
            4.39,
            4.52,
            4.74,
            4.94,
            5.13,
            5.23,
            5.26,
            5.19,
            5.23,
            5.39,
            5.48,
            5.61,
            5.8,
            5.93,
            6.12,
            6.32,
            6.57,
            6.8,
            6.9,
            6.96,
            7.02,
            7.15,
            7.41,
            7.51,
            7.67,
            7.73,
            7.89,
            7.99,
            7.99,
            8.09,
            8.28,
            8.47,
            8.63,
            8.82,
            8.95,
            9.24,
            9.47,
            9.66,
            9.79,
            9.92,
            10.27,
            10.62,
            10.85,
            11.23,
            11.46,
            11.88,
            12.26,
            12.65,
            12.97,
            13.26,
            13.58,
            13.81,
            14.03,
            14.22,
            14.48,
            14.64,
            14.77,
            14.9,
            14.99,
            15.25,
            15.22,
            15.44,
            15.57,
            15.67,
            15.83,
            15.99,
            16.15,
            16.28,
            16.47,
            16.44,
            16.67,
            16.73,
            16.92,
            17.08,
            17.15,
            17.34,
            17.47,
            17.85,
            18.46,
            18.59,
            18.56,
            18.5,
            18.5,
            18.43,
            18.3,
            18.3,
            18.3,
            18.24,
            18.18,
            18.27,
            18.4,
            18.34,
            18.18,
            18.11,
            17.89,
            17.47,
            17.02,
            16.5,
            16.28,
            15.89,
            15.64,
            15.48,
            15.32,
            15.09,
            14.8,
            14.58,
            14.16,
            13.97,
            13.9,
            13.87,
            13.77,
            13.74,
            13.9,
            13.9,
            14.22,
            14.64,
            14.83,
            14.74,
            14.61,
            14.41,
            14.38,
            14.38,
            14.51,
            14.48,
            14.41,
            14.29,
            14.19,
            14.06,
            13.9,
            13.93,
            14.06,
            14.13,
            14.22,
            14.48,
            14.61,
            14.64,
            14.51,
            14.54,
            14.35,
            14.16,
            13.9,
            13.42,
            13.0,
            12.65,
            12.36,
            11.97,
            11.52,
            11.36,
            11.04,
            10.66,
            10.49,
            10.33,
            10.17,
            10.08,
            10.14,
            10.24,
            10.3,
            10.43,
            10.27,
            10.11,
            9.95,
            9.69,
            9.6,
            9.31,
            9.05,
            8.82,
            8.47,
            7.92,
            7.76,
            7.54,
            6.93,
            6.54,
            6.41,
            6.19,
            5.93,
            5.8,
            5.58,
            5.39,
            5.32,
            5.48,
            5.58,
            5.55,
            5.35,
            5.16,
            4.87,
            4.68,
            4.48,
            4.26,
            4.16,
            3.94,
            3.94,
            3.81,
            3.78,
            3.81,
            3.75,
            3.55,
            3.36,
            3.04,
            3.04,
            2.81,
            2.69,
            2.81,
            2.91,
            2.85,
            2.3,
            2.27,
            2.24,
            2.2,
            2.24,
            2.04,
            1.75,
            1.88,
            2.14,
            2.04,
            1.79,
            1.79,
            2.08,
            1.88,
            1.62,
            1.85,
            2.14,
            1.79,
            2.3,
            2.46,
            2.49,
            2.43,
            2.46,
            2.65,
            3.01,
            3.1,
            3.26
          ]
        ]
      }
    },
    "003": {
      "common": {
        "heads": [
          "ANG"
        ],
        "units": [
          "ADEG"
        ],
        "data": [
          [
            100.0
          ]
        ]
      },
      "data": {
        "heads": [
          "EN",
          "DATA"
        ],
        "units": [
          "KEV",
          "MB/SR"
        ],
        "data": [
          [
            642.14,
            646.21,
            651.15,
            655.68,
            660.21,
            665.03,
            674.77,
            679.9,
            684.78,
            689.66,
            692.49,
            694.65,
            694.86,
            695.74,
            696.31,
            698.34,
            699.96,
            700.27,
            700.95,
            701.32,
            701.69,
            702.16,
            702.53,
            702.84,
            703.05,
            703.58,
            703.95,
            704.42,
            704.85,
            705.32,
            705.75,
            706.06,
            706.49,
            706.75,
            707.12,
            707.44,
            707.71,
            708.08,
            708.29,
            708.67,
            708.88,
            709.15,
            709.36,
            709.63,
            709.95,
            710.11,
            710.32,
            710.59,
            710.91,
            711.12,
            711.34,
            711.55,
            711.87,
            712.14,
            712.63,
            712.95,
            713.33,
            713.54,
            713.76,
            714.03,
            714.24,
            714.56,
            714.89,
            715.16,
            715.48,
            715.7,
            715.86,
            716.19,
            716.46,
            716.73,
            717.05,
            717.27,
            717.49,
            717.76,
            718.14,
            718.41,
            718.74,
            719.23,
            719.55,
            719.94,
            720.15,
            720.37,
            720.7,
            721.08,
            721.36,
            721.57,
            721.79,
            722.07,
            722.34,
            722.62,
            722.84,
            723.11,
            723.33,
            723.55,
            723.77,
            724.04,
            724.32,
            724.48,
            724.65,
            724.93,
            725.04,
            725.31,
            725.64,
            725.86,
            726.2,
            726.36,
            726.58,
            726.8,
            727.08,
            727.36,
            727.63,
            727.8,
            728.08,
            728.36,
            728.63,
            728.86,
            729.02,
            729.24,
            729.36,
            729.47,
            729.69,
            729.91,
            730.02,
            730.25,
            730.47,
            730.69,
            730.86,
            731.14,
            731.42,
            731.7,
            731.87,
            732.15,
            732.37,
            732.59,
            732.82,
            733.21,
            733.49,
            733.77,
            733.99,
            734.22,
            734.44,
            734.73,
            735.01,
            735.23,
            735.57,
            735.85,
            736.19,
            736.64,
            737.09,
            737.49,
            737.77,
            738.06,
            738.34,
            738.68,
            739.08,
            739.36,
            739.76,
            740.1,
            740.27,
            744.04,
            744.9,
            750.27,
            755.81,
            762.37,
            767.69,
            773.91,
            780.4,
            786.34,
            792.92,
            799.33,
            805.94,
            812.12,
            819.09,
            824.75,
            831.61,
            832.63,
            835.96,
            838.36,
            840.0,
            841.52,
            845.05,
            846.85,
            849.15,
            850.97,
            853.08,
            855.69,
            859.81
          ],
          [
            1.11,
            0.92,
            1.05,
            1.21,
            1.18,
            1.4,
            1.95,
            1.75,
            2.11,
            2.59,
            2.65,
            3.01,
            3.1,
            3.33,
            3.59,
            3.75,
            4.39,
            4.61,
            5.23,
            5.67,
            6.06,
            6.45,
            6.74,
            6.77,
            6.64,
            6.67,
            6.74,
            6.83,
            7.02,
            7.51,
            7.99,
            8.47,
            8.92,
            9.18,
            9.53,
            9.95,
            10.3,
            10.75,
            11.07,
            11.52,
            11.78,
            11.97,
            12.29,
            12.52,
            12.87,
            13.03,
            13.16,
            13.32,
            13.48,
            13.64,
            13.71,
            13.77,
            13.74,
            13.77,
            13.71,
            13.71,
            13.61,
            13.58,
            13.61,
            13.84,
            13.84,
            13.77,
            13.55,
            13.32,
            13.0,
            12.68,
            12.39,
            12.17,
            11.91,
            11.68,
            11.49,
            11.33,
            11.27,
            11.27,
            11.2,
            11.33,
            11.43,
            11.72,
            11.97,
            12.04,
            12.1,
            11.91,
            11.78,
            11.72,
            11.68,
            11.68,
            11.84,
            11.84,
            11.97,
            12.17,
            12.17,
            11.94,
            11.78,
            11.52,
            11.36,
            11.11,
            10.82,
            10.75,
            10.72,
            10.78,
            10.88,
            10.88,
            10.98,
            11.01,
            11.11,
            11.07,
            11.07,
            10.75,
            10.43,
            10.08,
            9.56,
            9.15,
            9.08,
            8.82,
            8.6,
            8.53,
            8.6,
            8.69,
            8.76,
            8.79,
            8.76,
            8.76,
            8.66,
            8.63,
            8.6,
            8.57,
            8.5,
            8.6,
            8.73,
            8.82,
            8.79,
            8.86,
            8.92,
            8.82,
            8.69,
            8.6,
            8.34,
            8.09,
            7.83,
            7.51,
            7.22,
            6.93,
            6.64,
            6.41,
            6.16,
            5.96,
            5.8,
            5.61,
            5.58,
            5.26,
            5.1,
            5.03,
            5.06,
            5.16,
            5.16,
            5.13,
            5.0,
            4.84,
            4.68,
            3.55,
            3.55,
            3.39,
            2.65,
            2.81,
            2.69,
            2.24,
            2.33,
            2.75,
            2.27,
            2.37,
            2.2,
            2.53,
            2.11,
            2.88,
            2.75,
            2.85,
            3.1,
            3.71,
            3.84,
            3.62,
            3.1,
            3.23,
            3.59,
            3.81,
            4.04,
            4.2,
            5.1
          ]
        ]
      }
    }
  },
  "experimental_conditions": {
    "001": {
      "0": {
        "correction": [
          {
            "x4_code": null,
            "free_txt": [
              "CORRECTED FOR BACKGROUND, DETECTOR SENSITIVITY AND",
              " SOLID ANGLE."
            ]
          }
        ],
        "detector": [
          {
            "x4_code": null,
            "free_txt": [
              "SILICON, 5.1 CM FROM SAMPLE."
            ]
          }
        ],
        "err-analys": [
          {
            "x4_code": "(DATA-ERR)",
            "free_txt": [
              " TOTAL SYSTEMATIC UNCERTAINTY, ESTIMATED.",
              " STATISTICAL UNCERTAINTY IN THE CROSS SECTION",
              " AVERAGED OVER A 5-KEV ENERGY BAND VARIES FROM 5",
              " PERCENT NEAR 713 KEV PEAK TO 10 PERCENT IN THE WINGS."
            ]
          }
        ],
        "method": [
          {
            "x4_code": "(TOF)",
            "free_txt": []
          }
        ],
        "monitor": [
          {
            "x4_code": "(94-PU-239(N,F),,SIG)",
            "free_txt": [
              " FROM NSE 26, 149 (1966)"
            ]
          }
        ],
        "sample": [
          {
            "x4_code": null,
            "free_txt": [
              "TH(O)2, 0.5 MG/CM2, 80 PERCENT 230-TH."
            ]
          }
        ],
        "status": [
          {
            "x4_code": "(APRVD)",
            "free_txt": [
              " APPROVED BY D.W.MUIR, 82/9/20."
            ]
          }
        ]
      }
    },
    "002": {},
    "003": {}
  }
}