{
  "bib": {
    "title": "Components for the 1.4,1.6 and 1.7-MeV structure in the fission of 232-Th+N.",
    "authors": [
      {
        "name": "G.F.Auchampaugh"
      },
      {
        "name": "S.Plattard"
      },
      {
        "name": "N.W.Hill"
      },
      {
        "name": "G.De Saussure"
      },
      {
        "name": "R.B.Perez"
      },
      {
        "name": "J.A.Harvey"
      }
    ],
    "institutes": [
      {
        "x4_code": "(1USAORL)",
        "free_txt": []
      }
    ],
    "references": {
      "0": [
        {
          "x4_code": "(J,PR/C,24,503,1981)",
          "free_txt": [],
          "publication_year": "1981"
        }
      ]
    },
    "facility": {
      "0": [
        {
          "x4_code": "(LINAC)",
          "free_txt": [
            " ORELA"
          ]
        }
      ]
    },
    "history": [
      {
        "x4_code": "(19840717C)",
        "free_txt": []
      },
      {
        "x4_code": "(20050715C)",
        "free_txt": [
          " DR Format updated and reference corrected"
        ]
      }
    ]
  },
  "12736-001": {
    "extra_information": {
      "correction": {
        "0": [
          {
            "x4_code": null,
            "free_txt": [
              "The data were corrected for-",
              "  Dead time correction",
              "  Time independent background",
              "  Flux data corrected for the 238-U contribution (7 %)"
            ]
          }
        ]
      },
      "detector": {
        "0": [
          {
            "x4_code": null,
            "free_txt": [
              "Fission-fragment detector consisted of-",
              "six-cell gas scintillator filled with a 0.98 percent He",
              "    2 tercent N2 mixture at stp",
              "  Five cells contain natural thorium, two cells viewed",
              "   fragments emitted 0-90 deg. to the neutron beam",
              "   direction. The other three viewed fragments emitted",
              "   from 0-23, 0-33.7 and 0-51.7 deg.",
              "  One cell contained 93 percent enriched 235-U, which",
              "   is used to measure neutron spectrum",
              "Each cell is viewed by two XP 2020 Q,5-cm -diameter",
              "  photo multiplier tubes."
            ]
          }
        ]
      },
      "err-analys": {
        "0": [
          {
            "x4_code": "(ERR-S)",
            "free_txt": [
              " Statistical uncertainty"
            ]
          }
        ]
      },
      "facility": {
        "0": [
          {
            "x4_code": "(LINAC)",
            "free_txt": [
              " ORELA"
            ]
          }
        ]
      },
      "inc-source": {
        "0": [
          {
            "x4_code": "(PHOTO)",
            "free_txt": [
              " Water cooled tantalum target"
            ]
          }
        ]
      },
      "method": {
        "0": [
          {
            "x4_code": "(TOF)",
            "free_txt": [
              " Nominal time resolution of 0.15 ns/m",
              " The 235-U data were  repeatedly smoothed with a",
              "    third-degree 7-point smoothing polynomial before",
              "    forming the ratios."
            ]
          }
        ]
      },
      "status": {
        "0": [
          {
            "x4_code": null,
            "free_txt": [
              "Data from private comm., De Saussure, 84/6/11."
            ]
          },
          {
            "x4_code": "(APRVD)",
            "free_txt": [
              " G. De Saussure, 84/12/17."
            ]
          }
        ]
      }
    }
  },
  "12736-002": {
    "reaction": {
      "0": {
        "x4_code": "((90-TH-232(N,F),,SIG,,FCT)/(92-U-235(N,F),,SIG,,FCT))",
        "0": {
          "code": [
            "90-TH-232",
            [
              "N,F"
            ],
            ",,SIG,,FCT"
          ],
          "type": null,
          "target": "90-TH-232",
          "process": "N,F",
          "sf49": ",,SIG,,FCT",
          "sf4": null,
          "sf5": null,
          "sf6": "SIG",
          "sf7": null,
          "sf8": "FCT",
          "sf9": null
        },
        "1": {
          "code": [
            "92-U-235",
            [
              "N,F"
            ],
            ",,SIG,,FCT"
          ],
          "type": null,
          "target": "92-U-235",
          "process": "N,F",
          "sf49": ",,SIG,,FCT",
          "sf4": null,
          "sf5": null,
          "sf6": "SIG",
          "sf7": null,
          "sf8": "FCT",
          "sf9": null
        },
        "type": "/",
        "free_text": "Angle-integrated cross section ratios taken for theangular intervals 0-23.4, 0-33.7, 0-51.7, 0-90 Degrees."
      }
    },
    "extra_information": {},
    "common": null,
    "data": {
      "heads": [
        "EN",
        "DATA",
        "ERR-S"
      ],
      "units": [
        "MEV",
        "NO-DIM",
        "NO-DIM"
      ],
      "data": [
        [
          0.71755,
          0.71836,
          0.71917,
          0.71999,
          0.72081,
          0.72244,
          0.72326,
          0.72408,
          0.72491,
          0.72573,
          0.72656,
          0.72739,
          0.72821,
          0.72905,
          0.72988,
          0.73071,
          0.73154,
          0.73238,
          0.73322,
          0.73406,
          0.7349,
          0.73574,
          0.73658,
          0.73743,
          0.73827,
          0.73912,
          0.73997,
          0.74082,
          0.74167,
          0.74253,
          0.74338,
          0.74424,
          0.74509,
          0.74595,
          0.74681,
          0.74768,
          0.74854,
          0.74941,
          0.75027,
          0.75114,
          0.75201,
          0.75288,
          0.75376,
          0.75463,
          0.75551,
          0.75638,
          0.75726,
          0.75814,
          0.75902,
          0.75991,
          0.76079,
          0.76168,
          0.76257,
          0.76346,
          0.76435,
          0.76524,
          0.76614,
          0.76703,
          0.76793,
          0.76883,
          0.76973,
          0.77063,
          0.77154,
          0.77244,
          0.77335,
          0.77426,
          0.77517,
          0.77608,
          0.77699,
          0.77791,
          0.77883,
          0.77974,
          0.78066,
          0.78159,
          0.78251,
          0.78343,
          0.78436,
          0.78529,
          0.78622,
          0.78715,
          0.78808,
          0.78902,
          0.78995,
          0.79089,
          0.79183,
          0.79277,
          0.79372,
          0.79466,
          0.79561,
          0.79656,
          0.79751,
          0.79846,
          0.79941,
          0.80037,
          0.80132,
          0.80228,
          0.80324,
          0.8042,
          0.80517,
          0.80613,
          0.8071,
          0.80807,
          0.80904,
          0.81001,
          0.81099,
          0.81196,
          0.81294,
          0.81392,
          0.8149,
          0.81588,
          0.81687,
          0.81786,
          0.81884,
          0.81983,
          0.82083,
          0.82182,
          0.82281,
          0.82381,
          0.82481,
          0.82581,
          0.82681,
          0.82782,
          0.82883,
          0.82983,
          0.83084,
          0.83186,
          0.83287,
          0.83389,
          0.8349,
          0.83592,
          0.83694,
          0.83797,
          0.83899,
          0.84002,
          0.84105,
          0.84208,
          0.84311,
          0.84415,
          0.84518,
          0.84622,
          0.84726,
          0.8483,
          0.84935,
          0.85039,
          0.85144,
          0.85249,
          0.85354,
          0.8546,
          0.85565,
          0.85671,
          0.85777,
          0.85883,
          0.8599,
          0.86096,
          0.86203,
          0.8631,
          0.86417,
          0.86524,
          0.86632,
          0.8674,
          0.86848,
          0.86956,
          0.87064,
          0.87173,
          0.87281,
          0.8739,
          0.875,
          0.87609,
          0.87719,
          0.87828,
          0.87938,
          0.88049,
          0.88159,
          0.8827,
          0.8838,
          0.88491,
          0.88603,
          0.88714,
          0.88826,
          0.88938,
          0.8905,
          0.89162,
          0.89275,
          0.89387,
          0.895,
          0.89613,
          0.89727,
          0.8984,
          0.89954,
          0.90068,
          0.90182,
          0.90297,
          0.90411,
          0.90526,
          0.90641,
          0.90757,
          0.90872,
          0.90988,
          0.91104,
          0.9122,
          0.91337,
          0.91453,
          0.9157,
          0.91687,
          0.91805,
          0.91922,
          0.9204,
          0.92158,
          0.92276,
          0.92395,
          0.92513,
          0.92632,
          0.92752,
          0.92871,
          0.92991,
          0.9311,
          0.9323,
          0.93351,
          0.93471,
          0.93592,
          0.93713,
          0.93834,
          0.93956,
          0.94078,
          0.94199,
          0.94322,
          0.94444,
          0.94567,
          0.9469,
          0.94813,
          0.94936,
          0.9506,
          0.95184,
          0.95308,
          0.95432,
          0.95557,
          0.95682,
          0.95807,
          0.95932,
          0.96058,
          0.96183,
          0.9631,
          0.96436,
          0.96562,
          0.96689,
          0.96816,
          0.96944,
          0.97071,
          0.97199,
          0.97327,
          0.97455,
          0.97584,
          0.97713,
          0.97842,
          0.97971,
          0.98101,
          0.98231,
          0.98361,
          0.98491,
          0.98622,
          0.98753,
          0.98884,
          0.99015,
          0.99147,
          0.99279,
          0.99411,
          0.99544,
          0.99676,
          0.9981,
          0.99943,
          1.0007,
          1.0021,
          1.0034,
          1.0047,
          1.0061,
          1.0074,
          1.0088,
          1.0101,
          1.0115,
          1.0129,
          1.0142,
          1.0156,
          1.017,
          1.0183,
          1.0197,
          1.0211,
          1.0225,
          1.0238,
          1.0252,
          1.0266,
          1.028,
          1.0294,
          1.0308,
          1.0322,
          1.0336,
          1.035,
          1.0364,
          1.0378,
          1.0392,
          1.0406,
          1.0421,
          1.0435,
          1.0449,
          1.0463,
          1.0478,
          1.0492,
          1.0506,
          1.0521,
          1.0535,
          1.055,
          1.0564,
          1.0579,
          1.0593,
          1.0608,
          1.0622,
          1.0637,
          1.0652,
          1.0666,
          1.0681,
          1.0696,
          1.0711,
          1.0725,
          1.074,
          1.0755,
          1.077,
          1.0785,
          1.08,
          1.0815,
          1.083,
          1.0845,
          1.086,
          1.0875,
          1.0891,
          1.0906,
          1.0921,
          1.0936,
          1.0951,
          1.0967,
          1.0982,
          1.0998,
          1.1013,
          1.1028,
          1.1044,
          1.1059,
          1.1075,
          1.1091,
          1.1106,
          1.1122,
          1.1137,
          1.1153,
          1.1169,
          1.1185,
          1.1201,
          1.1216,
          1.1232,
          1.1248,
          1.1264,
          1.128,
          1.1296,
          1.1312,
          1.1328,
          1.1344,
          1.1361,
          1.1377,
          1.1393,
          1.1409,
          1.1426,
          1.1442,
          1.1458,
          1.1475,
          1.1491,
          1.1507,
          1.1524,
          1.1541,
          1.1557,
          1.1574,
          1.159,
          1.1607,
          1.1624,
          1.1641,
          1.1657,
          1.1674,
          1.1691,
          1.1708,
          1.1725,
          1.1742,
          1.1759,
          1.1776,
          1.1793,
          1.181,
          1.1827,
          1.1844,
          1.1862,
          1.1879,
          1.1896,
          1.1914,
          1.1931,
          1.1948,
          1.1966,
          1.1983,
          1.2001,
          1.2018,
          1.2036,
          1.2054,
          1.2071,
          1.2089,
          1.2107,
          1.2125,
          1.2143,
          1.216,
          1.2178,
          1.2196,
          1.2214,
          1.2232,
          1.2251,
          1.2269,
          1.2287,
          1.2305,
          1.2323,
          1.2342,
          1.236,
          1.2378,
          1.2397,
          1.2415,
          1.2434,
          1.2452,
          1.2471,
          1.2489,
          1.2508,
          1.2527,
          1.2546,
          1.2564,
          1.2583,
          1.2602,
          1.2621,
          1.264,
          1.2659,
          1.2678,
          1.2697,
          1.2716,
          1.2735,
          1.2755,
          1.2774,
          1.2793,
          1.2812,
          1.2832,
          1.2851,
          1.2871,
          1.289,
          1.291,
          1.2929,
          1.2949,
          1.2969,
          1.2989,
          1.3008,
          1.3028,
          1.3048,
          1.3068,
          1.3088,
          1.3108,
          1.3128,
          1.3148,
          1.3168,
          1.3189,
          1.3209,
          1.3229,
          1.3249,
          1.327,
          1.329,
          1.3311,
          1.3331,
          1.3352,
          1.3373,
          1.3393,
          1.3414,
          1.3435,
          1.3456,
          1.3476,
          1.3497,
          1.3518,
          1.3539,
          1.356,
          1.3581,
          1.3603,
          1.3624,
          1.3645,
          1.3666,
          1.3688,
          1.3709,
          1.3731,
          1.3752,
          1.3774,
          1.3795,
          1.3817,
          1.3839,
          1.3861,
          1.3882,
          1.3904,
          1.3926,
          1.3948,
          1.397,
          1.3992,
          1.4014,
          1.4037,
          1.4059,
          1.4081,
          1.4103,
          1.4126,
          1.4148,
          1.4171,
          1.4193,
          1.4216,
          1.4239,
          1.4261,
          1.4284,
          1.4307,
          1.433,
          1.4353,
          1.4376,
          1.4399,
          1.4422,
          1.4445,
          1.4468,
          1.4492,
          1.4515,
          1.4538,
          1.4562,
          1.4585,
          1.4609,
          1.4632,
          1.4656,
          1.468,
          1.4704,
          1.4728,
          1.4751,
          1.4775,
          1.4799,
          1.4823,
          1.4848,
          1.4872,
          1.4896,
          1.492,
          1.4945,
          1.4969,
          1.4994,
          1.5018,
          1.5043,
          1.5068,
          1.5092,
          1.5117,
          1.5142,
          1.5167,
          1.5192,
          1.5217,
          1.5242,
          1.5267,
          1.5292,
          1.5318,
          1.5343,
          1.5368,
          1.5394,
          1.5419,
          1.5445,
          1.5471,
          1.5496,
          1.5522,
          1.5548,
          1.5574,
          1.56,
          1.5626,
          1.5652,
          1.5678,
          1.5705,
          1.5731,
          1.5757,
          1.5784,
          1.581,
          1.5837,
          1.5864,
          1.589,
          1.5917,
          1.5944,
          1.5971,
          1.5998,
          1.6025,
          1.6052,
          1.6079,
          1.6107,
          1.6134,
          1.6161,
          1.6189,
          1.6216,
          1.6244,
          1.6272,
          1.63,
          1.6327,
          1.6355,
          1.6383,
          1.6411,
          1.6439,
          1.6468,
          1.6496,
          1.6524,
          1.6553,
          1.6581,
          1.661,
          1.6638,
          1.6667,
          1.6696,
          1.6725,
          1.6754,
          1.6783,
          1.6812,
          1.6841,
          1.687,
          1.6899,
          1.6929,
          1.6958,
          1.6988,
          1.7017,
          1.7047,
          1.7077,
          1.7107,
          1.7137,
          1.7167,
          1.7197,
          1.7227,
          1.7257,
          1.7288,
          1.7318,
          1.7348,
          1.7379,
          1.741,
          1.744,
          1.7471,
          1.7502,
          1.7533,
          1.7564,
          1.7595,
          1.7627,
          1.7658,
          1.7689,
          1.7721,
          1.7752,
          1.7784,
          1.7816,
          1.7847,
          1.7879,
          1.7911,
          1.7943,
          1.7976,
          1.8008,
          1.804,
          1.8073,
          1.8105,
          1.8138,
          1.817,
          1.8203,
          1.8236,
          1.8269,
          1.8302,
          1.8335,
          1.8368,
          1.8402,
          1.8435,
          1.8469,
          1.8502,
          1.8536,
          1.857,
          1.8603,
          1.8637,
          1.8671,
          1.8706,
          1.874,
          1.8774,
          1.8809,
          1.8843,
          1.8878,
          1.8912,
          1.8947,
          1.8982,
          1.9017,
          1.9052,
          1.9087,
          1.9123,
          1.9158,
          1.9193,
          1.9229,
          1.9265,
          1.9301,
          1.9336,
          1.9372,
          1.9408,
          1.9445,
          1.9481,
          1.9517,
          1.9554,
          1.959,
          1.9627,
          1.9664,
          1.9701,
          1.9738,
          1.9775,
          1.9812,
          1.9849,
          1.9887,
          1.9924,
          1.9962,
          2.0,
          2.0038,
          2.0076,
          2.0114,
          2.0152,
          2.019,
          2.0228,
          2.0267,
          2.0306,
          2.0344,
          2.0383,
          2.0422,
          2.0461,
          2.05,
          2.054,
          2.0579,
          2.0619,
          2.0658,
          2.0698,
          2.0738,
          2.0778,
          2.0818,
          2.0858,
          2.0898,
          2.0939,
          2.0979,
          2.102,
          2.1061,
          2.1102,
          2.1143,
          2.1184,
          2.1225,
          2.1266,
          2.1308,
          2.135,
          2.1391,
          2.1433,
          2.1475,
          2.1517,
          2.156,
          2.1602,
          2.1644,
          2.1687,
          2.173,
          2.1773,
          2.1816,
          2.1859,
          2.1902,
          2.1946,
          2.1989,
          2.2033,
          2.2076,
          2.212,
          2.2164,
          2.2209,
          2.2253,
          2.2297,
          2.2342,
          2.2387,
          2.2431,
          2.2476,
          2.2521,
          2.2567,
          2.2612,
          2.2658,
          2.2703,
          2.2749,
          2.2795,
          2.2841,
          2.2887,
          2.2934,
          2.298,
          2.3027,
          2.3074,
          2.312,
          2.3168,
          2.3215,
          2.3262,
          2.331,
          2.3357,
          2.3405,
          2.3453,
          2.3501,
          2.3549,
          2.3598,
          2.3646,
          2.3695,
          2.3744,
          2.3793,
          2.3842,
          2.3891,
          2.3941,
          2.399,
          2.404,
          2.409,
          2.414,
          2.419,
          2.424,
          2.4291,
          2.4342,
          2.4392,
          2.4443,
          2.4495,
          2.4546,
          2.4597,
          2.4649,
          2.4701,
          2.4753,
          2.4805,
          2.4857,
          2.491,
          2.4963,
          2.5015,
          2.5068,
          2.5121,
          2.5175,
          2.5228,
          2.5282,
          2.5336,
          2.539,
          2.5444,
          2.5498,
          2.5553,
          2.5607,
          2.5662,
          2.5717,
          2.5773,
          2.5828,
          2.5884,
          2.5939,
          2.5995,
          2.6051,
          2.6108,
          2.6164,
          2.6221,
          2.6278,
          2.6335,
          2.6392,
          2.6449,
          2.6507,
          2.6565,
          2.6623,
          2.6681,
          2.6739,
          2.6798,
          2.6857,
          2.6916,
          2.6975,
          2.7034,
          2.7094,
          2.7153,
          2.7213,
          2.7273,
          2.7334,
          2.7394,
          2.7455,
          2.7516,
          2.7577,
          2.7638,
          2.77,
          2.7762,
          2.7824,
          2.7886,
          2.7948,
          2.8011,
          2.8074,
          2.8137,
          2.82,
          2.8263,
          2.8327,
          2.8391,
          2.8455,
          2.8519,
          2.8584,
          2.8648,
          2.8713,
          2.8778,
          2.8844,
          2.8909,
          2.8975,
          2.9041,
          2.9108,
          2.9174,
          2.9241,
          2.9308,
          2.9375,
          2.9443,
          2.951,
          2.9578,
          2.9646,
          2.9715,
          2.9783,
          2.9852,
          2.9921,
          2.9991,
          3.006,
          3.013,
          3.02,
          3.027,
          3.0341,
          3.0412,
          3.0483,
          3.0554,
          3.0626,
          3.0698,
          3.077,
          3.0842,
          3.0915,
          3.0987,
          3.106,
          3.1134,
          3.1207,
          3.1281,
          3.1355,
          3.143,
          3.1504,
          3.1579,
          3.1655,
          3.173,
          3.1806,
          3.1882,
          3.1958,
          3.2035,
          3.2111,
          3.2189,
          3.2266,
          3.2344,
          3.2422,
          3.25,
          3.2578,
          3.2657,
          3.2736,
          3.2816,
          3.2895,
          3.2975,
          3.3055,
          3.3136,
          3.3217,
          3.3298,
          3.3379,
          3.3461,
          3.3543,
          3.3625,
          3.3708,
          3.3791,
          3.3874,
          3.3958,
          3.4042,
          3.4126,
          3.421,
          3.4295,
          3.438,
          3.4466,
          3.4552,
          3.4638,
          3.4724,
          3.4811,
          3.4898,
          3.4985,
          3.5073,
          3.5161,
          3.5249,
          3.5338,
          3.5427,
          3.5517,
          3.5606,
          3.5696,
          3.5787,
          3.5877,
          3.5969,
          3.606,
          3.6152,
          3.6244,
          3.6337,
          3.6429,
          3.6523,
          3.6616,
          3.671,
          3.6804,
          3.6899,
          3.6994,
          3.7089,
          3.7185,
          3.7281,
          3.7378,
          3.7475,
          3.7572,
          3.767,
          3.7768,
          3.7866,
          3.7965,
          3.8064,
          3.8164,
          3.8264,
          3.8364,
          3.8465,
          3.8566,
          3.8668,
          3.8769,
          3.8872,
          3.8975,
          3.9078,
          3.9181,
          3.9285,
          3.939,
          3.9495,
          3.96,
          3.9706,
          3.9812,
          3.9918,
          4.0025,
          4.0133,
          4.024,
          4.0349,
          4.0457,
          4.0567,
          4.0676,
          4.0786,
          4.0897,
          4.1008,
          4.1119,
          4.1231,
          4.1343,
          4.1456,
          4.1569,
          4.1683,
          4.1797,
          4.1912,
          4.2027,
          4.2142,
          4.2258,
          4.2375,
          4.2492,
          4.2609,
          4.2727,
          4.2846,
          4.2965,
          4.3084,
          4.3204,
          4.3325,
          4.3446,
          4.3567,
          4.3689,
          4.3812,
          4.3935,
          4.4058,
          4.4182,
          4.4307,
          4.4432,
          4.4558,
          4.4684,
          4.4811,
          4.4938,
          4.5066,
          4.5194,
          4.5323,
          4.5453,
          4.5583,
          4.5713,
          4.5844,
          4.5976,
          4.6108,
          4.6241,
          4.6375,
          4.6509,
          4.6643,
          4.6779,
          4.6914,
          4.7051,
          4.7188,
          4.7325,
          4.7463,
          4.7602,
          4.7742,
          4.7882,
          4.8022,
          4.8164,
          4.8305,
          4.8448,
          4.8591,
          4.8735,
          4.8879,
          4.9024,
          4.917,
          4.9316,
          4.9463,
          4.9611,
          4.976,
          4.9909,
          5.0058,
          5.0209,
          5.036,
          5.0511,
          5.0664,
          5.0817,
          5.0971,
          5.1125,
          5.128,
          5.1436,
          5.1593,
          5.175,
          5.1908,
          5.2067,
          5.2227,
          5.2387,
          5.2548,
          5.271,
          5.2872,
          5.3036,
          5.32,
          5.3364,
          5.353,
          5.3696,
          5.3863,
          5.4031,
          5.42,
          5.4369,
          5.454,
          5.4711,
          5.4883,
          5.5055,
          5.5229,
          5.5403,
          5.5578,
          5.5754,
          5.5931,
          5.6109,
          5.6288,
          5.6467,
          5.6647,
          5.6828,
          5.701,
          5.7193,
          5.7377,
          5.7562,
          5.7747,
          5.7934,
          5.8121,
          5.8309,
          5.8498,
          5.8689,
          5.888,
          5.9072,
          5.9265,
          5.9458,
          5.9653,
          5.9849,
          6.0046,
          6.0244,
          6.0442,
          6.0642,
          6.0843,
          6.1044,
          6.1247,
          6.1451,
          6.1656,
          6.1861,
          6.2068,
          6.2276,
          6.2485,
          6.2695,
          6.2906,
          6.3118,
          6.3331,
          6.3545,
          6.3761,
          6.3977,
          6.4195,
          6.4413,
          6.4633,
          6.4854,
          6.5076,
          6.5299,
          6.5524,
          6.5749,
          6.5976,
          6.6204,
          6.6433,
          6.6663,
          6.6895,
          6.7127,
          6.7361,
          6.7596,
          6.7833,
          6.807,
          6.8309,
          6.8549,
          6.8791,
          6.9034,
          6.9278,
          6.9523,
          6.9769,
          7.0017,
          7.0267,
          7.0517,
          7.0769,
          7.1022,
          7.1277,
          7.1533,
          7.179,
          7.2049,
          7.2309,
          7.2571,
          7.2834,
          7.3099,
          7.3365,
          7.3632,
          7.3901,
          7.4171,
          7.4443,
          7.4716,
          7.4991,
          7.5268,
          7.5546,
          7.5825,
          7.6106,
          7.6389,
          7.6673,
          7.6959,
          7.7246,
          7.7535,
          7.7826,
          7.8118,
          7.8412,
          7.8708,
          7.9005,
          7.9304,
          7.9605,
          7.9907,
          8.0211,
          8.0517,
          8.0825,
          8.1134,
          8.1445,
          8.1758,
          8.2073,
          8.239,
          8.2709,
          8.3029,
          8.3351,
          8.3675,
          8.4001,
          8.4329,
          8.4659,
          8.4991,
          8.5325,
          8.5661,
          8.5998,
          8.6338,
          8.668,
          8.7024,
          8.737,
          8.7718,
          8.8068,
          8.842,
          8.8775,
          8.9131,
          8.949,
          8.985,
          9.0213,
          9.0579,
          9.0946,
          9.1316,
          9.1688,
          9.2062,
          9.2439,
          9.2818,
          9.3199,
          9.3582,
          9.3968,
          9.4357,
          9.4748,
          9.5141,
          9.5537,
          9.5935,
          9.6336,
          9.6739,
          9.7145,
          9.7553,
          9.7964,
          9.8378,
          9.8794,
          9.9213,
          9.9635,
          10.005,
          10.048,
          10.091,
          10.134,
          10.178,
          10.222,
          10.266,
          10.31,
          10.355,
          10.4,
          10.445,
          10.491,
          10.537,
          10.583,
          10.629,
          10.676,
          10.723,
          10.771,
          10.818,
          10.866,
          10.915,
          10.963,
          11.012,
          11.062,
          11.111,
          11.161,
          11.212,
          11.263,
          11.314,
          11.365,
          11.417,
          11.469,
          11.521,
          11.574,
          11.627,
          11.681,
          11.735,
          11.789,
          11.844,
          11.899,
          11.955,
          12.01,
          12.067
        ],
        [
          8.703e-06,
          6.1385e-05,
          3.3933e-05,
          4.6986e-05,
          3.4506e-05,
          2.6931e-05,
          5.9913e-05,
          7.1778e-05,
          7.3159e-05,
          5.9293e-05,
          6.6722e-05,
          8.0726e-05,
          4.4771e-05,
          3.0317e-05,
          3.8483e-05,
          4.8045e-05,
          5.7443e-05,
          8.0233e-05,
          6.7246e-05,
          6.8938e-05,
          0.0001076,
          0.00015638,
          0.00014721,
          0.00010882,
          0.00016099,
          0.00011696,
          5.75e-05,
          6.3339e-05,
          0.00012326,
          8.2501e-05,
          0.00013415,
          0.00012069,
          7.2007e-05,
          9.4262e-05,
          7.9123e-05,
          0.00013074,
          7.9171e-05,
          0.00010817,
          2.7551e-05,
          0.0001002,
          0.0001464,
          8.2615e-05,
          9.4245e-05,
          0.0001019,
          9.9232e-05,
          8.0711e-05,
          5.2158e-05,
          4.0401e-05,
          5.1844e-05,
          0.00013522,
          7.9875e-05,
          0.00013245,
          0.00011793,
          0.00013842,
          0.00015598,
          9.3991e-05,
          8.4719e-05,
          8.0532e-05,
          3.3031e-05,
          7.7024e-05,
          6.2721e-05,
          7.1241e-05,
          0.00013296,
          7.2164e-05,
          0.00012468,
          0.00012184,
          9.6816e-05,
          4.4275e-05,
          8.7631e-05,
          0.00012787,
          0.00012806,
          0.00022482,
          9.3598e-05,
          8.587e-05,
          7.9803e-05,
          0.00019688,
          0.00018515,
          0.00025595,
          0.00010533,
          2.5193e-05,
          0.00012326,
          0.00021065,
          0.00020797,
          0.00017933,
          9.2729e-05,
          0.00013719,
          0.00014943,
          0.00012378,
          0.00018122,
          0.00018962,
          8.5559e-05,
          0.00012605,
          8.6424e-05,
          7.9175e-05,
          6.2242e-05,
          3.4937e-05,
          8.2987e-05,
          0.00022995,
          5.0262e-05,
          7.7318e-05,
          9.6323e-05,
          7.416e-05,
          7.6229e-05,
          6.9351e-05,
          0.0001177,
          0.00011351,
          8.8993e-05,
          0.0001775,
          0.00011848,
          0.00011826,
          0.00015179,
          9.4143e-05,
          7.9229e-05,
          0.00010372,
          8.4942e-05,
          0.0001698,
          0.00011875,
          8.9502e-05,
          0.00020585,
          0.00023775,
          0.00023931,
          0.00010106,
          0.00015446,
          0.00021499,
          0.00014475,
          0.00015053,
          0.00013863,
          9.7995e-05,
          8.7636e-05,
          0.0001,
          5.1227e-05,
          0.00014417,
          0.00017451,
          0.00024306,
          0.00012254,
          0.00019898,
          0.00016151,
          0.00016791,
          0.00022591,
          0.00021076,
          0.00023404,
          0.00020066,
          0.00011277,
          0.00014532,
          0.00018199,
          0.00020988,
          0.00025861,
          0.00030449,
          0.00044724,
          0.00026578,
          0.00028822,
          0.00028584,
          0.00015933,
          0.0002235,
          0.00022798,
          0.00024813,
          0.00032636,
          0.00031471,
          0.00034236,
          0.00039499,
          0.00043451,
          0.00031514,
          0.00036748,
          0.00038234,
          0.00032117,
          0.00038256,
          0.00053147,
          0.00057537,
          0.00049507,
          0.00042661,
          0.00045279,
          0.00049404,
          0.0005151,
          0.00067082,
          0.00047303,
          0.00046059,
          0.00047776,
          0.00047416,
          0.00045901,
          0.00059006,
          0.00075285,
          0.00082925,
          0.00072537,
          0.00045667,
          0.00049666,
          0.00060261,
          0.00078204,
          0.00095687,
          0.00074302,
          0.00066408,
          0.00063522,
          0.00077076,
          0.0007958,
          0.00080401,
          0.0010373,
          0.00090279,
          0.00082059,
          0.00076909,
          0.00073143,
          0.00079798,
          0.00097326,
          0.00082208,
          0.00096412,
          0.0011484,
          0.0011546,
          0.0010486,
          0.00098929,
          0.0011077,
          0.0009158,
          0.00093449,
          0.00085589,
          0.00060877,
          0.00091145,
          0.00073964,
          0.00089067,
          0.00090031,
          0.00082416,
          0.0009364,
          0.00082834,
          0.00066701,
          0.0007309,
          0.00068742,
          0.00081567,
          0.0010343,
          0.0010417,
          0.0011165,
          0.0011954,
          0.0011843,
          0.0011833,
          0.0010872,
          0.00094859,
          0.0010078,
          0.00098475,
          0.0011061,
          0.0010589,
          0.00092133,
          0.0010993,
          0.0011797,
          0.0010186,
          0.00092226,
          0.00088912,
          0.00095328,
          0.00094898,
          0.0010317,
          0.00091596,
          0.00088394,
          0.0011186,
          0.00097284,
          0.00083643,
          0.0010014,
          0.00091518,
          0.00083222,
          0.00085082,
          0.00094456,
          0.00088337,
          0.00097301,
          0.0011458,
          0.0010226,
          0.0011178,
          0.00088388,
          0.0008702,
          0.0009131,
          0.0009064,
          0.00090389,
          0.0011552,
          0.0011443,
          0.001292,
          0.001374,
          0.0011988,
          0.001082,
          0.001166,
          0.001083,
          0.0012533,
          0.0013165,
          0.0014441,
          0.0012795,
          0.0011731,
          0.001379,
          0.001429,
          0.0014523,
          0.0014945,
          0.0016971,
          0.0017876,
          0.0017416,
          0.0018627,
          0.0019773,
          0.0021146,
          0.0016839,
          0.0017582,
          0.0018506,
          0.001846,
          0.0019459,
          0.0017387,
          0.0017757,
          0.0019033,
          0.0020185,
          0.0020001,
          0.0020562,
          0.0019626,
          0.0017806,
          0.0017697,
          0.0018155,
          0.0017591,
          0.0017115,
          0.0018453,
          0.0018616,
          0.0021514,
          0.0018739,
          0.001989,
          0.0017476,
          0.0017113,
          0.0019799,
          0.001999,
          0.0016851,
          0.0018876,
          0.0020263,
          0.0018153,
          0.0018751,
          0.0019231,
          0.0018183,
          0.0017848,
          0.0017595,
          0.0017841,
          0.0017804,
          0.0019598,
          0.0021307,
          0.0019463,
          0.00174,
          0.0016527,
          0.0020706,
          0.0020699,
          0.0020004,
          0.0020912,
          0.0022839,
          0.0026697,
          0.0024381,
          0.0025056,
          0.0022016,
          0.0021498,
          0.0022327,
          0.0024969,
          0.0023002,
          0.0021044,
          0.0017566,
          0.0023721,
          0.0020521,
          0.0020767,
          0.0021704,
          0.0020573,
          0.0022667,
          0.0023707,
          0.0021388,
          0.0022097,
          0.0023709,
          0.0020608,
          0.0020799,
          0.0018905,
          0.0019817,
          0.0019275,
          0.0022309,
          0.0022237,
          0.0023894,
          0.0022415,
          0.0018727,
          0.0021485,
          0.0024436,
          0.0022595,
          0.0023637,
          0.0025005,
          0.0028013,
          0.0030464,
          0.0029647,
          0.0030165,
          0.0033311,
          0.0032648,
          0.0034759,
          0.0031444,
          0.0036025,
          0.0035285,
          0.0035723,
          0.0034432,
          0.0036586,
          0.0034433,
          0.0033965,
          0.0034773,
          0.0033109,
          0.0037586,
          0.0042938,
          0.0040501,
          0.0039368,
          0.0036758,
          0.0038179,
          0.0040347,
          0.0043196,
          0.0041693,
          0.0042174,
          0.0041329,
          0.0044759,
          0.0047971,
          0.0052326,
          0.0053481,
          0.0053859,
          0.0053105,
          0.0055229,
          0.0061692,
          0.0065287,
          0.0061887,
          0.0062793,
          0.0059863,
          0.0059278,
          0.0061625,
          0.0063165,
          0.0064654,
          0.0068665,
          0.0070358,
          0.0073743,
          0.0075909,
          0.0083137,
          0.0088427,
          0.009548,
          0.0093927,
          0.0087119,
          0.0083538,
          0.008471,
          0.0089215,
          0.0088855,
          0.0090027,
          0.0095161,
          0.0094186,
          0.0096098,
          0.010299,
          0.0098685,
          0.010032,
          0.010766,
          0.011484,
          0.011922,
          0.012156,
          0.011215,
          0.011535,
          0.012603,
          0.012938,
          0.013909,
          0.014599,
          0.015234,
          0.015289,
          0.016466,
          0.016756,
          0.01759,
          0.017879,
          0.018237,
          0.017975,
          0.019404,
          0.020204,
          0.02058,
          0.02224,
          0.021074,
          0.021693,
          0.023716,
          0.026296,
          0.026516,
          0.027327,
          0.028993,
          0.030556,
          0.031058,
          0.033404,
          0.034161,
          0.033569,
          0.033781,
          0.035147,
          0.036616,
          0.037136,
          0.036408,
          0.035977,
          0.035071,
          0.035272,
          0.036931,
          0.038383,
          0.039134,
          0.040504,
          0.040359,
          0.041243,
          0.041077,
          0.042702,
          0.042858,
          0.043672,
          0.040663,
          0.04459,
          0.043686,
          0.045162,
          0.045437,
          0.046009,
          0.045738,
          0.046368,
          0.049646,
          0.052105,
          0.052947,
          0.053407,
          0.051579,
          0.050556,
          0.05037,
          0.049492,
          0.051027,
          0.051617,
          0.05326,
          0.053065,
          0.052616,
          0.052233,
          0.052186,
          0.05094,
          0.050673,
          0.052494,
          0.053039,
          0.055036,
          0.055041,
          0.053461,
          0.052239,
          0.053356,
          0.052837,
          0.051747,
          0.053221,
          0.054482,
          0.053219,
          0.05341,
          0.048897,
          0.050467,
          0.051147,
          0.053483,
          0.055702,
          0.055473,
          0.05689,
          0.055789,
          0.054907,
          0.052529,
          0.053728,
          0.053834,
          0.055976,
          0.056497,
          0.05564,
          0.054509,
          0.056402,
          0.056552,
          0.059004,
          0.061454,
          0.061794,
          0.062385,
          0.061506,
          0.0617,
          0.061987,
          0.063702,
          0.065408,
          0.067886,
          0.071407,
          0.070663,
          0.071168,
          0.072516,
          0.0729,
          0.075031,
          0.078922,
          0.078212,
          0.079908,
          0.081443,
          0.080721,
          0.085307,
          0.087802,
          0.091414,
          0.09516,
          0.095374,
          0.098309,
          0.099732,
          0.098876,
          0.10077,
          0.10468,
          0.10482,
          0.10636,
          0.1066,
          0.10552,
          0.10487,
          0.10449,
          0.10189,
          0.10133,
          0.097372,
          0.096818,
          0.09372,
          0.093095,
          0.091549,
          0.091879,
          0.091418,
          0.088928,
          0.084695,
          0.082113,
          0.081136,
          0.080029,
          0.077008,
          0.076466,
          0.073988,
          0.071418,
          0.067238,
          0.063452,
          0.062541,
          0.062258,
          0.06193,
          0.062067,
          0.05947,
          0.059622,
          0.059354,
          0.061565,
          0.062847,
          0.065372,
          0.066847,
          0.071718,
          0.072414,
          0.073048,
          0.076487,
          0.076943,
          0.076233,
          0.078812,
          0.078162,
          0.0786,
          0.077063,
          0.076353,
          0.07496,
          0.073407,
          0.073018,
          0.072604,
          0.071506,
          0.069821,
          0.067439,
          0.064563,
          0.063481,
          0.062894,
          0.06013,
          0.058162,
          0.055668,
          0.054874,
          0.055122,
          0.054841,
          0.051865,
          0.052393,
          0.054449,
          0.054354,
          0.054224,
          0.054749,
          0.056715,
          0.057716,
          0.059834,
          0.062075,
          0.063741,
          0.067021,
          0.068244,
          0.071417,
          0.071642,
          0.072839,
          0.072425,
          0.074495,
          0.076794,
          0.076183,
          0.076828,
          0.07825,
          0.081273,
          0.082652,
          0.085233,
          0.087404,
          0.086001,
          0.086952,
          0.088241,
          0.091125,
          0.094528,
          0.092372,
          0.092061,
          0.092457,
          0.09406,
          0.091877,
          0.09204,
          0.091695,
          0.090211,
          0.091603,
          0.090159,
          0.091638,
          0.092764,
          0.090099,
          0.090451,
          0.0905,
          0.090026,
          0.088749,
          0.088519,
          0.091389,
          0.091217,
          0.091814,
          0.092594,
          0.090874,
          0.093134,
          0.095225,
          0.096249,
          0.096133,
          0.095373,
          0.096186,
          0.098818,
          0.099753,
          0.098913,
          0.097022,
          0.098119,
          0.09854,
          0.098943,
          0.099188,
          0.102,
          0.10011,
          0.098553,
          0.098171,
          0.096764,
          0.095051,
          0.090771,
          0.095341,
          0.09562,
          0.096006,
          0.095387,
          0.094452,
          0.095014,
          0.09816,
          0.098276,
          0.099122,
          0.10181,
          0.10219,
          0.10248,
          0.10171,
          0.10427,
          0.10341,
          0.10446,
          0.1021,
          0.10376,
          0.10185,
          0.099687,
          0.10226,
          0.10311,
          0.10459,
          0.10427,
          0.10271,
          0.10205,
          0.10202,
          0.10305,
          0.10452,
          0.10732,
          0.10925,
          0.10973,
          0.10976,
          0.1109,
          0.11198,
          0.11309,
          0.11299,
          0.11202,
          0.11067,
          0.1113,
          0.11342,
          0.11515,
          0.11477,
          0.11475,
          0.11616,
          0.11414,
          0.11319,
          0.11337,
          0.11314,
          0.11507,
          0.1118,
          0.11067,
          0.11056,
          0.10998,
          0.10796,
          0.1091,
          0.10546,
          0.10325,
          0.10271,
          0.10204,
          0.10063,
          0.098144,
          0.097147,
          0.096209,
          0.094681,
          0.09233,
          0.091909,
          0.093534,
          0.093269,
          0.093243,
          0.091471,
          0.091767,
          0.091492,
          0.088541,
          0.088107,
          0.089552,
          0.091956,
          0.092593,
          0.091942,
          0.093313,
          0.092249,
          0.092134,
          0.090873,
          0.090939,
          0.091492,
          0.091683,
          0.095181,
          0.092736,
          0.092273,
          0.091272,
          0.091655,
          0.092593,
          0.091357,
          0.089782,
          0.091982,
          0.093252,
          0.09386,
          0.093984,
          0.094768,
          0.096318,
          0.094628,
          0.095878,
          0.098077,
          0.097944,
          0.096211,
          0.097081,
          0.09794,
          0.098148,
          0.097029,
          0.096585,
          0.097166,
          0.096469,
          0.097719,
          0.099293,
          0.09909,
          0.09734,
          0.096938,
          0.097228,
          0.09653,
          0.098216,
          0.098247,
          0.096282,
          0.099438,
          0.097747,
          0.099571,
          0.096192,
          0.096438,
          0.096575,
          0.096805,
          0.098494,
          0.10073,
          0.09995,
          0.096919,
          0.097394,
          0.099086,
          0.1003,
          0.099265,
          0.10308,
          0.10785,
          0.10684,
          0.10183,
          0.1034,
          0.10573,
          0.10353,
          0.10473,
          0.10771,
          0.1093,
          0.10825,
          0.10901,
          0.11079,
          0.1099,
          0.10645,
          0.10808,
          0.10686,
          0.10259,
          0.10467,
          0.10755,
          0.10913,
          0.10645,
          0.10805,
          0.10835,
          0.10867,
          0.11014,
          0.11129,
          0.11014,
          0.10966,
          0.11023,
          0.10812,
          0.10795,
          0.11076,
          0.11559,
          0.11361,
          0.11448,
          0.11373,
          0.11092,
          0.11455,
          0.11732,
          0.11405,
          0.11584,
          0.11248,
          0.11179,
          0.11275,
          0.11227,
          0.11424,
          0.11279,
          0.11509,
          0.11558,
          0.11557,
          0.11727,
          0.11825,
          0.11798,
          0.11719,
          0.11807,
          0.11743,
          0.11427,
          0.11715,
          0.11719,
          0.1194,
          0.11753,
          0.11421,
          0.11408,
          0.11465,
          0.11614,
          0.11728,
          0.11602,
          0.11725,
          0.11636,
          0.11792,
          0.11455,
          0.11679,
          0.11551,
          0.11631,
          0.11989,
          0.11976,
          0.11955,
          0.11865,
          0.11898,
          0.11838,
          0.11778,
          0.11892,
          0.11829,
          0.11686,
          0.11784,
          0.11519,
          0.11494,
          0.11813,
          0.11773,
          0.11733,
          0.11712,
          0.12095,
          0.12153,
          0.12097,
          0.11924,
          0.12028,
          0.12,
          0.11613,
          0.1184,
          0.11792,
          0.11808,
          0.11892,
          0.12076,
          0.12305,
          0.12291,
          0.12598,
          0.12273,
          0.1217,
          0.12064,
          0.125,
          0.12628,
          0.1212,
          0.12211,
          0.12167,
          0.12419,
          0.11989,
          0.12301,
          0.12327,
          0.12808,
          0.12548,
          0.12332,
          0.12076,
          0.11848,
          0.12267,
          0.12357,
          0.12396,
          0.12463,
          0.12503,
          0.12465,
          0.12515,
          0.12584,
          0.12616,
          0.1262,
          0.12576,
          0.1294,
          0.12913,
          0.12804,
          0.12438,
          0.12425,
          0.127,
          0.12828,
          0.1274,
          0.12774,
          0.12791,
          0.12856,
          0.12856,
          0.12914,
          0.13185,
          0.12802,
          0.13175,
          0.12889,
          0.1286,
          0.12691,
          0.12616,
          0.12912,
          0.12892,
          0.12918,
          0.12895,
          0.12801,
          0.1301,
          0.12807,
          0.12621,
          0.12894,
          0.12997,
          0.13052,
          0.13076,
          0.13176,
          0.1313,
          0.12831,
          0.13011,
          0.12734,
          0.12614,
          0.1303,
          0.13036,
          0.13406,
          0.13282,
          0.13217,
          0.13018,
          0.1336,
          0.12981,
          0.13188,
          0.13115,
          0.13098,
          0.13453,
          0.13383,
          0.13175,
          0.13263,
          0.13048,
          0.13697,
          0.13655,
          0.13676,
          0.13604,
          0.13573,
          0.13026,
          0.13315,
          0.13118,
          0.13407,
          0.13771,
          0.13509,
          0.13572,
          0.13647,
          0.13444,
          0.13525,
          0.13523,
          0.1358,
          0.13646,
          0.13308,
          0.1296,
          0.13084,
          0.13223,
          0.13088,
          0.1302,
          0.13002,
          0.13254,
          0.13392,
          0.13111,
          0.13057,
          0.13512,
          0.13583,
          0.13703,
          0.13776,
          0.13505,
          0.13213,
          0.13206,
          0.13332,
          0.13575,
          0.13258,
          0.13512,
          0.13505,
          0.14125,
          0.13666,
          0.13738,
          0.14129,
          0.14103,
          0.14076,
          0.13953,
          0.13974,
          0.13922,
          0.13462,
          0.13663,
          0.13852,
          0.13662,
          0.13896,
          0.13436,
          0.13803,
          0.14013,
          0.13863,
          0.13973,
          0.13767,
          0.13626,
          0.13475,
          0.13563,
          0.1382,
          0.13566,
          0.13422,
          0.13366,
          0.13527,
          0.13435,
          0.13356,
          0.13503,
          0.13664,
          0.1342,
          0.13124,
          0.13579,
          0.1345,
          0.13569,
          0.13561,
          0.13272,
          0.13654,
          0.13491,
          0.13173,
          0.13488,
          0.138,
          0.13692,
          0.13599,
          0.13824,
          0.13751,
          0.13952,
          0.13761,
          0.13924,
          0.13854,
          0.13661,
          0.13636,
          0.13276,
          0.13573,
          0.13896,
          0.13724,
          0.13892,
          0.1385,
          0.14367,
          0.14301,
          0.14076,
          0.13785,
          0.13777,
          0.13625,
          0.13601,
          0.13601,
          0.13585,
          0.13289,
          0.13299,
          0.1388,
          0.13997,
          0.14385,
          0.14399,
          0.14538,
          0.14929,
          0.15139,
          0.15292,
          0.15179,
          0.15507,
          0.15897,
          0.15644,
          0.16046,
          0.16542,
          0.16945,
          0.17537,
          0.17967,
          0.18637,
          0.1841,
          0.19143,
          0.19499,
          0.19777,
          0.20265,
          0.20331,
          0.21072,
          0.21123,
          0.2155,
          0.21906,
          0.226,
          0.23212,
          0.23746,
          0.24372,
          0.24634,
          0.25179,
          0.25176,
          0.25629,
          0.25748,
          0.26089,
          0.26194,
          0.26424,
          0.26789,
          0.26848,
          0.27297,
          0.27387,
          0.27717,
          0.27629,
          0.27668,
          0.2742,
          0.27069,
          0.27362,
          0.27065,
          0.26345,
          0.26676,
          0.26283,
          0.26722,
          0.27181,
          0.26661,
          0.26695,
          0.25706,
          0.25614,
          0.25231,
          0.25576,
          0.25274,
          0.25419,
          0.25545,
          0.25125,
          0.24349,
          0.23954,
          0.23633,
          0.23418,
          0.23308,
          0.23593,
          0.23594,
          0.23474,
          0.23512,
          0.22989,
          0.22637,
          0.22617,
          0.22568,
          0.2214,
          0.21478,
          0.21123,
          0.21406,
          0.2113,
          0.21124,
          0.21459,
          0.21433,
          0.21331,
          0.21857,
          0.21481,
          0.21273,
          0.21298,
          0.21246,
          0.20787,
          0.20102,
          0.2046,
          0.20363,
          0.20992,
          0.20729,
          0.21067,
          0.21341,
          0.2114,
          0.21087,
          0.20691,
          0.20777,
          0.20536,
          0.20054,
          0.19671,
          0.19761,
          0.1939,
          0.19536,
          0.19516,
          0.19148,
          0.19629,
          0.19674,
          0.20225,
          0.20051,
          0.198,
          0.19909,
          0.19518,
          0.19245,
          0.1909,
          0.18699,
          0.18489,
          0.18735,
          0.19286,
          0.19611,
          0.19578,
          0.19407,
          0.19363,
          0.19226,
          0.18486,
          0.18704,
          0.18989,
          0.18758,
          0.18065,
          0.17971,
          0.17968,
          0.17376,
          0.17108,
          0.1786,
          0.18163,
          0.18607,
          0.18388,
          0.18763,
          0.19144,
          0.19156,
          0.19383,
          0.19581,
          0.19183,
          0.18805,
          0.1872,
          0.1812,
          0.18076,
          0.18356,
          0.18716,
          0.19347,
          0.19898,
          0.20268,
          0.20592,
          0.19874,
          0.19228,
          0.18475,
          0.18159,
          0.17634,
          0.17898,
          0.17759,
          0.17629,
          0.17661,
          0.17526,
          0.17484,
          0.18436,
          0.18928,
          0.18568,
          0.19008,
          0.18705,
          0.18297,
          0.18206,
          0.18547,
          0.18548,
          0.16829,
          0.14064,
          0.12082,
          0.099161,
          0.082071,
          0.077231
        ],
        [
          1.6799e-05,
          4.3771e-05,
          3.2843e-05,
          3.8791e-05,
          3.3398e-05,
          2.9338e-05,
          4.3275e-05,
          4.7162e-05,
          4.7559e-05,
          4.2827e-05,
          4.533e-05,
          4.9674e-05,
          3.6962e-05,
          3.0431e-05,
          3.4184e-05,
          3.8077e-05,
          4.149e-05,
          4.891e-05,
          4.4916e-05,
          4.5792e-05,
          5.7602e-05,
          6.9682e-05,
          6.7463e-05,
          5.7638e-05,
          6.9532e-05,
          5.8932e-05,
          4.1263e-05,
          4.3282e-05,
          6.041e-05,
          4.9608e-05,
          6.3325e-05,
          6.0058e-05,
          4.6323e-05,
          5.2774e-05,
          4.8234e-05,
          6.1888e-05,
          4.8263e-05,
          5.6508e-05,
          2.8761e-05,
          5.4624e-05,
          6.606e-05,
          4.9676e-05,
          5.2973e-05,
          5.4943e-05,
          5.4095e-05,
          4.8751e-05,
          3.9238e-05,
          3.4552e-05,
          3.9002e-05,
          6.2622e-05,
          4.8028e-05,
          6.167e-05,
          5.8146e-05,
          6.2936e-05,
          6.6749e-05,
          5.1818e-05,
          4.9195e-05,
          4.7991e-05,
          3.0903e-05,
          4.7173e-05,
          4.2859e-05,
          4.6069e-05,
          6.3474e-05,
          4.7162e-05,
          6.2044e-05,
          6.1202e-05,
          5.4419e-05,
          3.6867e-05,
          5.1766e-05,
          6.248e-05,
          6.2392e-05,
          8.2346e-05,
          5.3029e-05,
          5.0726e-05,
          4.8876e-05,
          7.6595e-05,
          7.4161e-05,
          8.7028e-05,
          5.5789e-05,
          2.7445e-05,
          6.0231e-05,
          7.8613e-05,
          7.8018e-05,
          7.2408e-05,
          5.212e-05,
          6.3366e-05,
          6.6094e-05,
          6.0123e-05,
          7.2732e-05,
          7.4476e-05,
          5.0107e-05,
          6.0693e-05,
          5.0185e-05,
          4.8043e-05,
          4.2782e-05,
          3.2335e-05,
          4.9899e-05,
          8.312e-05,
          3.8928e-05,
          4.8033e-05,
          5.3307e-05,
          4.6521e-05,
          4.6907e-05,
          4.4614e-05,
          5.8031e-05,
          5.7013e-05,
          5.0419e-05,
          7.0811e-05,
          5.7551e-05,
          5.7275e-05,
          6.4808e-05,
          5.1131e-05,
          4.7007e-05,
          5.3816e-05,
          4.8713e-05,
          6.8697e-05,
          5.7344e-05,
          4.9721e-05,
          7.5265e-05,
          8.0831e-05,
          8.1015e-05,
          5.2615e-05,
          6.4924e-05,
          7.6472e-05,
          6.2663e-05,
          6.3835e-05,
          6.1314e-05,
          5.1721e-05,
          4.9064e-05,
          5.2421e-05,
          3.7492e-05,
          6.2558e-05,
          6.8801e-05,
          8.1474e-05,
          5.8166e-05,
          7.4384e-05,
          6.7151e-05,
          6.8494e-05,
          7.9364e-05,
          7.6429e-05,
          8.0149e-05,
          7.3862e-05,
          5.5265e-05,
          6.2764e-05,
          7.0401e-05,
          7.5736e-05,
          8.4025e-05,
          9.0923e-05,
          0.00010982,
          8.4378e-05,
          8.7734e-05,
          8.731e-05,
          6.513e-05,
          7.699e-05,
          7.7619e-05,
          8.0938e-05,
          9.2924e-05,
          9.1372e-05,
          9.5385e-05,
          0.00010251,
          0.00010758,
          9.1595e-05,
          9.8737e-05,
          0.00010032,
          9.1534e-05,
          9.9618e-05,
          0.00011736,
          0.00012214,
          0.00011315,
          0.00010467,
          0.00010731,
          0.00011162,
          0.00011381,
          0.00013018,
          0.00010961,
          0.0001084,
          0.00011041,
          0.0001098,
          0.00010773,
          0.00012183,
          0.0001373,
          0.00014392,
          0.00013458,
          0.00010682,
          0.0001115,
          0.00012281,
          0.00013978,
          0.00015446,
          0.00013579,
          0.00012815,
          0.00012521,
          0.00013798,
          0.00014032,
          0.00014112,
          0.0001604,
          0.00014957,
          0.00014289,
          0.00013919,
          0.00013706,
          0.00014467,
          0.00016079,
          0.00014737,
          0.00015821,
          0.00017085,
          0.00016998,
          0.00016158,
          0.00015724,
          0.00016694,
          0.00015178,
          0.00015302,
          0.00014591,
          0.00012255,
          0.00014979,
          0.00013466,
          0.00014775,
          0.00014855,
          0.00014213,
          0.00015158,
          0.00014254,
          0.00012801,
          0.00013452,
          0.0001311,
          0.00014344,
          0.00016172,
          0.00016171,
          0.00016655,
          0.00017164,
          0.00017056,
          0.00017055,
          0.00016352,
          0.00015262,
          0.00015722,
          0.00015521,
          0.00016431,
          0.00016045,
          0.00014943,
          0.00016339,
          0.00016954,
          0.00015769,
          0.00015012,
          0.0001474,
          0.0001526,
          0.0001522,
          0.00015882,
          0.00014988,
          0.00014775,
          0.00016708,
          0.00015634,
          0.00014522,
          0.00015903,
          0.00015178,
          0.00014449,
          0.00014604,
          0.00015407,
          0.00014916,
          0.00015667,
          0.00016985,
          0.00015978,
          0.00016628,
          0.00014708,
          0.0001456,
          0.00014921,
          0.00014895,
          0.00014904,
          0.00016874,
          0.00016777,
          0.00017814,
          0.00018385,
          0.00017213,
          0.00016416,
          0.00017097,
          0.00016469,
          0.00017677,
          0.00018056,
          0.0001887,
          0.00017733,
          0.00016981,
          0.00018452,
          0.00018814,
          0.00018985,
          0.00019261,
          0.00020524,
          0.00021035,
          0.00020693,
          0.00021306,
          0.00021839,
          0.00022492,
          0.00019989,
          0.00020417,
          0.00020954,
          0.00020929,
          0.00021501,
          0.00020325,
          0.0002056,
          0.00021292,
          0.00021899,
          0.00021752,
          0.00022039,
          0.00021542,
          0.00020553,
          0.00020561,
          0.00020921,
          0.00020662,
          0.00020375,
          0.00021061,
          0.00020994,
          0.00022458,
          0.0002089,
          0.00021537,
          0.00020166,
          0.00019909,
          0.00021354,
          0.00021373,
          0.00019543,
          0.00020674,
          0.00021428,
          0.00020259,
          0.00020566,
          0.00020781,
          0.00020163,
          0.00019984,
          0.00019891,
          0.00020079,
          0.00020062,
          0.00021036,
          0.0002195,
          0.00021035,
          0.00019979,
          0.00019538,
          0.00021893,
          0.00021802,
          0.00021334,
          0.00021771,
          0.00022768,
          0.00024668,
          0.00023548,
          0.00023866,
          0.00022352,
          0.00022118,
          0.0002259,
          0.00023936,
          0.0002295,
          0.00021913,
          0.00019977,
          0.0002327,
          0.0002164,
          0.00021809,
          0.00022334,
          0.00021728,
          0.00022774,
          0.00023226,
          0.00021978,
          0.00022291,
          0.00023042,
          0.00021381,
          0.00021406,
          0.0002036,
          0.00020883,
          0.00020673,
          0.00022357,
          0.00022361,
          0.00023175,
          0.00022386,
          0.00020398,
          0.00021861,
          0.00023352,
          0.0002246,
          0.00022998,
          0.00023674,
          0.00025101,
          0.0002625,
          0.00025986,
          0.00026345,
          0.00027819,
          0.0002755,
          0.00028384,
          0.0002687,
          0.00028726,
          0.00028366,
          0.00028511,
          0.00027958,
          0.00028838,
          0.00027943,
          0.00027694,
          0.00027918,
          0.00027095,
          0.00028826,
          0.00030858,
          0.00029978,
          0.00029559,
          0.00028482,
          0.00028927,
          0.00029639,
          0.00030646,
          0.00030151,
          0.00030481,
          0.00030308,
          0.00031624,
          0.00032693,
          0.0003407,
          0.00034398,
          0.00034577,
          0.00034452,
          0.00035291,
          0.00037464,
          0.00038583,
          0.00037439,
          0.00037604,
          0.00036537,
          0.00036208,
          0.00036814,
          0.00037192,
          0.00037638,
          0.00038996,
          0.00039843,
          0.00041313,
          0.0004234,
          0.00044524,
          0.00045736,
          0.00047176,
          0.00046364,
          0.00044354,
          0.00043377,
          0.00043792,
          0.00045112,
          0.00045056,
          0.00045342,
          0.00046614,
          0.00046239,
          0.00046634,
          0.00048334,
          0.00047226,
          0.00047684,
          0.00049604,
          0.00051449,
          0.00052576,
          0.00053187,
          0.00050933,
          0.00051697,
          0.00054187,
          0.00054928,
          0.00057206,
          0.00058948,
          0.00060639,
          0.0006104,
          0.00063822,
          0.0006458,
          0.00066436,
          0.00067093,
          0.00067884,
          0.00067402,
          0.00070493,
          0.00072259,
          0.00073096,
          0.00076414,
          0.00074074,
          0.00075356,
          0.00079427,
          0.00084383,
          0.00084648,
          0.00085859,
          0.00088567,
          0.00091064,
          0.00091712,
          0.0009571,
          0.00097138,
          0.0009643,
          0.00097109,
          0.0009953,
          0.0010174,
          0.0010208,
          0.0010028,
          0.00099113,
          0.0009738,
          0.00097777,
          0.0010078,
          0.0010335,
          0.001045,
          0.0010645,
          0.0010587,
          0.0010705,
          0.0010662,
          0.0010918,
          0.001095,
          0.0011103,
          0.001065,
          0.0011319,
          0.0011201,
          0.0011452,
          0.0011496,
          0.0011578,
          0.0011528,
          0.0011636,
          0.0012177,
          0.0012588,
          0.0012728,
          0.0012777,
          0.001244,
          0.0012212,
          0.0012121,
          0.001195,
          0.0012183,
          0.0012291,
          0.0012564,
          0.0012556,
          0.0012515,
          0.0012494,
          0.0012528,
          0.001237,
          0.0012356,
          0.0012661,
          0.0012755,
          0.0013052,
          0.0013013,
          0.0012705,
          0.0012447,
          0.0012565,
          0.0012465,
          0.0012308,
          0.0012556,
          0.0012767,
          0.0012579,
          0.0012603,
          0.0011896,
          0.0012128,
          0.0012223,
          0.0012573,
          0.0012907,
          0.0012871,
          0.001308,
          0.0012895,
          0.0012729,
          0.0012333,
          0.0012485,
          0.0012487,
          0.0012819,
          0.0012932,
          0.0012845,
          0.0012694,
          0.0012965,
          0.0012953,
          0.00133,
          0.0013684,
          0.0013791,
          0.0013946,
          0.0013869,
          0.0013931,
          0.0013995,
          0.0014274,
          0.0014563,
          0.0014979,
          0.0015549,
          0.0015462,
          0.0015519,
          0.0015666,
          0.0015661,
          0.0015924,
          0.0016454,
          0.0016312,
          0.0016498,
          0.0016648,
          0.0016489,
          0.0017115,
          0.0017494,
          0.0018082,
          0.0018721,
          0.0018847,
          0.0019302,
          0.0019491,
          0.0019357,
          0.0019646,
          0.002025,
          0.0020306,
          0.0020509,
          0.0020487,
          0.0020287,
          0.0020193,
          0.0020189,
          0.0019882,
          0.0019823,
          0.001923,
          0.0019103,
          0.0018647,
          0.0018599,
          0.0018465,
          0.0018602,
          0.0018576,
          0.0018187,
          0.0017503,
          0.0017058,
          0.0016869,
          0.0016688,
          0.0016256,
          0.0016218,
          0.0015924,
          0.001561,
          0.0015007,
          0.0014398,
          0.0014188,
          0.0014073,
          0.0013972,
          0.0013955,
          0.0013535,
          0.0013535,
          0.0013495,
          0.0013856,
          0.0014098,
          0.001453,
          0.0014798,
          0.001555,
          0.0015651,
          0.0015713,
          0.001617,
          0.0016197,
          0.0016074,
          0.0016441,
          0.0016347,
          0.0016413,
          0.0016193,
          0.0016096,
          0.0015915,
          0.0015737,
          0.0015754,
          0.0015772,
          0.0015671,
          0.0015462,
          0.0015147,
          0.0014773,
          0.0014695,
          0.0014701,
          0.0014336,
          0.0014029,
          0.0013569,
          0.0013344,
          0.0013291,
          0.0013184,
          0.0012685,
          0.0012755,
          0.0013071,
          0.0013044,
          0.0012995,
          0.0013036,
          0.0013303,
          0.0013439,
          0.0013758,
          0.0014095,
          0.0014341,
          0.0014838,
          0.0015046,
          0.0015559,
          0.0015637,
          0.0015862,
          0.0015854,
          0.0016221,
          0.0016604,
          0.0016517,
          0.0016584,
          0.0016754,
          0.0017174,
          0.001738,
          0.0017787,
          0.0018139,
          0.0017949,
          0.0018077,
          0.0018233,
          0.0018612,
          0.0019072,
          0.0018757,
          0.0018743,
          0.0018849,
          0.0019122,
          0.0018825,
          0.0018865,
          0.0018849,
          0.0018688,
          0.0018958,
          0.0018806,
          0.001907,
          0.0019258,
          0.0018864,
          0.0018921,
          0.0018953,
          0.0018912,
          0.0018719,
          0.0018639,
          0.0019009,
          0.0018965,
          0.0019077,
          0.0019228,
          0.0018989,
          0.0019325,
          0.0019649,
          0.0019843,
          0.0019869,
          0.0019768,
          0.0019879,
          0.0020294,
          0.0020532,
          0.0020543,
          0.0020334,
          0.0020462,
          0.0020425,
          0.0020424,
          0.0020486,
          0.0020981,
          0.0020752,
          0.0020528,
          0.0020479,
          0.0020308,
          0.0020113,
          0.0019512,
          0.0020221,
          0.0020237,
          0.0020239,
          0.0020081,
          0.00199,
          0.0019996,
          0.0020528,
          0.0020615,
          0.002078,
          0.0021173,
          0.002118,
          0.0021172,
          0.0021049,
          0.0021482,
          0.0021441,
          0.0021672,
          0.0021337,
          0.0021567,
          0.002126,
          0.0020963,
          0.0021434,
          0.0021655,
          0.0021934,
          0.0021878,
          0.00216,
          0.0021458,
          0.0021434,
          0.0021587,
          0.0021813,
          0.0022237,
          0.0022539,
          0.0022649,
          0.0022722,
          0.0022963,
          0.0023151,
          0.0023298,
          0.0023251,
          0.0023103,
          0.0022934,
          0.0023088,
          0.0023478,
          0.0023813,
          0.0023806,
          0.0023807,
          0.0023974,
          0.0023606,
          0.0023437,
          0.0023482,
          0.0023488,
          0.0023827,
          0.0023358,
          0.0023198,
          0.0023174,
          0.0023068,
          0.0022762,
          0.0022979,
          0.0022475,
          0.0022177,
          0.0022107,
          0.0021997,
          0.0021782,
          0.0021434,
          0.0021355,
          0.0021301,
          0.0021132,
          0.0020792,
          0.0020727,
          0.0020972,
          0.0020913,
          0.0020898,
          0.0020616,
          0.0020683,
          0.0020671,
          0.0020231,
          0.0020186,
          0.0020434,
          0.0020828,
          0.0020928,
          0.0020809,
          0.0021,
          0.0020792,
          0.0020745,
          0.0020542,
          0.0020595,
          0.0020777,
          0.002094,
          0.0021639,
          0.0021321,
          0.0021261,
          0.0021077,
          0.0021124,
          0.0021277,
          0.0021069,
          0.0020792,
          0.0021146,
          0.0021399,
          0.0021605,
          0.0021758,
          0.0021996,
          0.0022319,
          0.0022076,
          0.0022326,
          0.0022755,
          0.0022817,
          0.0022631,
          0.0022902,
          0.0023177,
          0.0023302,
          0.002311,
          0.0022943,
          0.0022923,
          0.0022744,
          0.0022991,
          0.0023356,
          0.0023409,
          0.0023141,
          0.0023062,
          0.0023109,
          0.0023023,
          0.0023363,
          0.0023394,
          0.0023034,
          0.0023518,
          0.0023173,
          0.002344,
          0.0022838,
          0.0022875,
          0.0022948,
          0.0023101,
          0.0023542,
          0.002406,
          0.0024008,
          0.0023537,
          0.0023681,
          0.0024056,
          0.0024363,
          0.0024292,
          0.0025101,
          0.0026088,
          0.0026012,
          0.0025146,
          0.0025391,
          0.0025755,
          0.0025364,
          0.0025652,
          0.0026307,
          0.0026697,
          0.0026541,
          0.0026645,
          0.0026944,
          0.0026847,
          0.0026367,
          0.002681,
          0.002666,
          0.0025861,
          0.0026178,
          0.0026667,
          0.0026977,
          0.0026547,
          0.0026889,
          0.002697,
          0.0027018,
          0.002725,
          0.0027434,
          0.0027235,
          0.002718,
          0.0027294,
          0.0026894,
          0.0026879,
          0.0027502,
          0.002858,
          0.0028387,
          0.0028593,
          0.0028379,
          0.0027768,
          0.002842,
          0.002902,
          0.0028554,
          0.0028986,
          0.002838,
          0.0028181,
          0.0028238,
          0.0028039,
          0.0028376,
          0.0028208,
          0.0028821,
          0.0029094,
          0.0029184,
          0.0029507,
          0.0029659,
          0.0029586,
          0.0029427,
          0.0029582,
          0.0029472,
          0.0028936,
          0.0029561,
          0.0029631,
          0.0030042,
          0.0029649,
          0.0029027,
          0.0029084,
          0.0029301,
          0.0029618,
          0.0029756,
          0.0029395,
          0.0029549,
          0.0029382,
          0.0029708,
          0.0029093,
          0.0029512,
          0.0029318,
          0.0029618,
          0.0030543,
          0.0030791,
          0.0030948,
          0.003084,
          0.0030855,
          0.003064,
          0.0030452,
          0.0030678,
          0.0030634,
          0.0030436,
          0.0030651,
          0.0030123,
          0.003006,
          0.0030687,
          0.003064,
          0.0030617,
          0.003067,
          0.0031542,
          0.0031758,
          0.0031646,
          0.0031186,
          0.0031208,
          0.0031029,
          0.0030296,
          0.0030886,
          0.0031012,
          0.0031234,
          0.0031504,
          0.0031883,
          0.0032294,
          0.0032216,
          0.0032793,
          0.0032198,
          0.003209,
          0.0031974,
          0.0032866,
          0.0033086,
          0.0032043,
          0.0032191,
          0.0032056,
          0.0032462,
          0.003155,
          0.00322,
          0.0032439,
          0.0033644,
          0.0033314,
          0.0032927,
          0.003237,
          0.0031874,
          0.0032734,
          0.0032987,
          0.0033134,
          0.003329,
          0.0033335,
          0.0033194,
          0.0033229,
          0.003332,
          0.003337,
          0.0033408,
          0.0033385,
          0.0034165,
          0.003411,
          0.0033835,
          0.0033071,
          0.0033117,
          0.0033859,
          0.0034344,
          0.0034311,
          0.0034407,
          0.0034408,
          0.0034504,
          0.0034492,
          0.0034612,
          0.0035173,
          0.0034416,
          0.0035149,
          0.0034482,
          0.0034285,
          0.0033832,
          0.0033647,
          0.0034288,
          0.0034332,
          0.003447,
          0.003449,
          0.0034342,
          0.003477,
          0.0034343,
          0.003396,
          0.0034542,
          0.0034803,
          0.0034949,
          0.0034975,
          0.0035096,
          0.0034898,
          0.0034204,
          0.0034504,
          0.0033922,
          0.0033673,
          0.0034522,
          0.0034602,
          0.0035462,
          0.0035326,
          0.0035236,
          0.0034799,
          0.0035445,
          0.0034687,
          0.0035154,
          0.0035051,
          0.0035031,
          0.0035746,
          0.0035606,
          0.0035195,
          0.0035386,
          0.0034996,
          0.003642,
          0.0036531,
          0.0036803,
          0.0036819,
          0.0036788,
          0.0035592,
          0.0036115,
          0.0035707,
          0.0036364,
          0.0037175,
          0.0036633,
          0.0036664,
          0.0036659,
          0.00361,
          0.003619,
          0.003618,
          0.0036314,
          0.003646,
          0.0035786,
          0.0035084,
          0.0035291,
          0.0035438,
          0.0034984,
          0.0034738,
          0.0034734,
          0.0035395,
          0.0035865,
          0.0035445,
          0.003542,
          0.0036377,
          0.0036515,
          0.003676,
          0.003692,
          0.0036347,
          0.0035659,
          0.0035497,
          0.003562,
          0.0036057,
          0.0035446,
          0.0036056,
          0.0036198,
          0.0037658,
          0.0036916,
          0.0037213,
          0.0038096,
          0.003804,
          0.0037915,
          0.0037554,
          0.0037492,
          0.0037317,
          0.0036342,
          0.0036734,
          0.003709,
          0.0036675,
          0.0037175,
          0.0036345,
          0.0037274,
          0.0037878,
          0.0037663,
          0.003792,
          0.003751,
          0.0037246,
          0.0036941,
          0.0037077,
          0.0037517,
          0.00369,
          0.0036527,
          0.0036345,
          0.0036616,
          0.0036402,
          0.0036272,
          0.0036652,
          0.0037062,
          0.0036587,
          0.003597,
          0.0036929,
          0.0036746,
          0.0037096,
          0.0037091,
          0.003635,
          0.003691,
          0.0036395,
          0.0035687,
          0.0036372,
          0.0037097,
          0.0036977,
          0.0036883,
          0.0037414,
          0.0037283,
          0.0037715,
          0.0037383,
          0.0037816,
          0.0037721,
          0.0037267,
          0.0037078,
          0.003621,
          0.0036766,
          0.0037442,
          0.0037133,
          0.0037537,
          0.0037512,
          0.0038602,
          0.0038392,
          0.0037758,
          0.0036973,
          0.0036824,
          0.0036441,
          0.0036306,
          0.0036154,
          0.0035909,
          0.0035105,
          0.0034979,
          0.0036089,
          0.0036367,
          0.0037211,
          0.0037264,
          0.0037486,
          0.0038148,
          0.0038428,
          0.0038571,
          0.0038147,
          0.0038512,
          0.0038946,
          0.0038169,
          0.00387,
          0.0039482,
          0.0040147,
          0.0041181,
          0.0041897,
          0.0043023,
          0.0042448,
          0.0043589,
          0.0044001,
          0.0044253,
          0.0044876,
          0.0044724,
          0.004573,
          0.004548,
          0.0045886,
          0.0046229,
          0.0047271,
          0.0048281,
          0.0049178,
          0.0050169,
          0.0050471,
          0.005126,
          0.0051174,
          0.005188,
          0.0051973,
          0.0052359,
          0.0052301,
          0.005245,
          0.0052856,
          0.0052788,
          0.005339,
          0.005341,
          0.0053845,
          0.0053638,
          0.0053687,
          0.0053259,
          0.0052566,
          0.0052782,
          0.0051963,
          0.005054,
          0.0050996,
          0.0050488,
          0.0051419,
          0.0052337,
          0.0051527,
          0.0051488,
          0.0049764,
          0.004954,
          0.0048921,
          0.0049545,
          0.0049169,
          0.0049539,
          0.0049838,
          0.0049143,
          0.0047751,
          0.0046927,
          0.0046264,
          0.0045895,
          0.0045846,
          0.0046551,
          0.0046819,
          0.0046827,
          0.0047022,
          0.0046244,
          0.0045725,
          0.0045727,
          0.0045628,
          0.0044866,
          0.0043739,
          0.0043202,
          0.0043812,
          0.0043529,
          0.0043697,
          0.004445,
          0.0044643,
          0.0044759,
          0.004596,
          0.0045561,
          0.0045373,
          0.0045543,
          0.0045575,
          0.0044908,
          0.0043824,
          0.004453,
          0.0044427,
          0.0045694,
          0.0045541,
          0.0046559,
          0.0047411,
          0.0047221,
          0.0047144,
          0.0046438,
          0.0046722,
          0.0046518,
          0.0045877,
          0.004534,
          0.0045596,
          0.0044953,
          0.0045275,
          0.0045321,
          0.0044796,
          0.004598,
          0.004646,
          0.0047946,
          0.0048004,
          0.004784,
          0.0048318,
          0.0047733,
          0.0047253,
          0.0046918,
          0.0046155,
          0.0045908,
          0.0046764,
          0.0048397,
          0.0049658,
          0.0050146,
          0.0050179,
          0.0050253,
          0.0049975,
          0.0048442,
          0.0049055,
          0.0049978,
          0.004987,
          0.0048674,
          0.004861,
          0.0048682,
          0.0047549,
          0.0047208,
          0.0049126,
          0.0050054,
          0.0051307,
          0.0051197,
          0.005253,
          0.0053926,
          0.0054399,
          0.0055193,
          0.0055749,
          0.0054791,
          0.0053776,
          0.0053449,
          0.0052139,
          0.0052417,
          0.0053765,
          0.0055452,
          0.005767,
          0.0059405,
          0.0060447,
          0.0061314,
          0.0059741,
          0.0058359,
          0.0056579,
          0.0055698,
          0.005432,
          0.0055101,
          0.005516,
          0.005532,
          0.0055773,
          0.0055745,
          0.0056073,
          0.0059174,
          0.006125,
          0.0061013,
          0.0062642,
          0.0062087,
          0.0061041,
          0.0060634,
          0.00612,
          0.0060757,
          0.0055794,
          0.0048214,
          0.0042993,
          0.0037784,
          0.0034348,
          0.0035097
        ]
      ]
    }
  }
}