{
  "entry": "10003",
  "last_updated": "2006-07-20",
  "number_of_revisions": "3",
  "histories": [
    {
      "x4_code": "(19691017C)",
      "free_txt": []
    },
    {
      "x4_code": "(19771108U)",
      "free_txt": [
        " BIB UPDATE"
      ]
    },
    {
      "x4_code": "(19800812A)",
      "free_txt": [
        " CONVERTED TO REACTION FORMALISM"
      ]
    },
    {
      "x4_code": "(19931229A)",
      "free_txt": [
        " BIB update. Converted to lower case."
      ]
    }
  ],
  "bib_record": {
    "title": "MeV total neutron cross sections.",
    "authors": [
      {
        "name": "R.B.Schwartz"
      },
      {
        "name": "R.A.Schrack"
      },
      {
        "name": "H.T.Heaton"
      }
    ],
    "institutes": [
      {
        "x4_code": "(1USANBS)",
        "free_txt": []
      }
    ],
    "references": [
      {
        "x4_code": "(R,NBS-MONO-138,197401)",
        "free_txt": [],
        "publication_year": "1974",
        "pointer": "0"
      }
    ],
    "facilities": [
      {
        "x4_code": "(LINAC)",
        "free_txt": [
          " Electron linac."
        ],
        "pointer": "0"
      }
    ]
  },
  "reactions": {
    "002": {
      "0": {
        "x4_code": "(22-TI-0(N,TOT),,SIG)",
        "children": [
          {
            "code": [
              "22-TI-0",
              [
                "N,TOT"
              ],
              ",,SIG"
            ],
            "type": null,
            "target": "22-TI-0",
            "process": "N,TOT",
            "sf49": ",,SIG",
            "sf4": null,
            "sf5": null,
            "sf6": "SIG",
            "sf7": null,
            "sf8": null,
            "sf9": null
          }
        ],
        "type": null,
        "free_text": ""
      }
    }
  },
  "data_tables": {
    "001": {
      "common": null
    },
    "002": {
      "common": {
        "heads": [
          "EN-RSL",
          "EN-ERR"
        ],
        "units": [
          "NSEC/M",
          "NSEC/M"
        ],
        "data": [
          [
            0.13
          ],
          [
            0.05
          ]
        ]
      },
      "data": {
        "heads": [
          "EN",
          "DATA",
          "ERR-S"
        ],
        "units": [
          "MEV",
          "B",
          "B"
        ],
        "data": [
          [
            0.4985,
            0.4987,
            0.499,
            0.4992,
            0.4994,
            0.4997,
            0.4999,
            0.5002,
            0.5004,
            0.5007,
            0.5009,
            0.5012,
            0.5014,
            0.5016,
            0.5019,
            0.5021,
            0.5024,
            0.5026,
            0.5029,
            0.5031,
            0.5034,
            0.5036,
            0.5039,
            0.5041,
            0.5044,
            0.5046,
            0.5049,
            0.5051,
            0.5054,
            0.5056,
            0.5058,
            0.5061,
            0.5064,
            0.5066,
            0.5069,
            0.5071,
            0.5073,
            0.5076,
            0.5078,
            0.5081,
            0.5084,
            0.5086,
            0.5089,
            0.5091,
            0.5093,
            0.5096,
            0.5099,
            0.5101,
            0.5104,
            0.5106,
            0.5109,
            0.5111,
            0.5114,
            0.5116,
            0.5119,
            0.5121,
            0.5124,
            0.5126,
            0.5129,
            0.5131,
            0.5134,
            0.5137,
            0.5139,
            0.5142,
            0.5144,
            0.5147,
            0.5149,
            0.5152,
            0.5154,
            0.5157,
            0.516,
            0.5162,
            0.5165,
            0.5167,
            0.517,
            0.5172,
            0.5175,
            0.5178,
            0.518,
            0.5183,
            0.5185,
            0.5188,
            0.5191,
            0.5193,
            0.5196,
            0.5198,
            0.5201,
            0.5204,
            0.5206,
            0.5209,
            0.5211,
            0.5214,
            0.5216,
            0.5219,
            0.5222,
            0.5224,
            0.5227,
            0.523,
            0.5232,
            0.5235,
            0.5237,
            0.524,
            0.5243,
            0.5245,
            0.5248,
            0.5251,
            0.5253,
            0.5256,
            0.5258,
            0.5261,
            0.5264,
            0.5266,
            0.5269,
            0.5272,
            0.5274,
            0.5277,
            0.528,
            0.5282,
            0.5285,
            0.5288,
            0.529,
            0.5293,
            0.5296,
            0.5298,
            0.5301,
            0.5304,
            0.5306,
            0.5309,
            0.5312,
            0.5314,
            0.5317,
            0.532,
            0.5322,
            0.5325,
            0.5328,
            0.533,
            0.5333,
            0.5336,
            0.5338,
            0.5341,
            0.5344,
            0.5347,
            0.5349,
            0.5352,
            0.5355,
            0.5358,
            0.536,
            0.5363,
            0.5366,
            0.5368,
            0.5371,
            0.5374,
            0.5376,
            0.5379,
            0.5382,
            0.5385,
            0.5387,
            0.539,
            0.5393,
            0.5396,
            0.5398,
            0.5401,
            0.5404,
            0.5407,
            0.5409,
            0.5412,
            0.5415,
            0.5418,
            0.542,
            0.5423,
            0.5426,
            0.5429,
            0.5431,
            0.5434,
            0.5437,
            0.544,
            0.5443,
            0.5445,
            0.5448,
            0.5451,
            0.5454,
            0.5457,
            0.5459,
            0.5462,
            0.5465,
            0.5468,
            0.547,
            0.5473,
            0.5476,
            0.5479,
            0.5482,
            0.5485,
            0.5487,
            0.549,
            0.5493,
            0.5496,
            0.5499,
            0.5501,
            0.5504,
            0.5507,
            0.551,
            0.5513,
            0.5515,
            0.5518,
            0.5521,
            0.5524,
            0.5527,
            0.553,
            0.5533,
            0.5535,
            0.5538,
            0.5541,
            0.5544,
            0.5547,
            0.555,
            0.5553,
            0.5555,
            0.5558,
            0.5561,
            0.5564,
            0.5567,
            0.557,
            0.5573,
            0.5576,
            0.5578,
            0.5581,
            0.5584,
            0.5587,
            0.559,
            0.5593,
            0.5596,
            0.5599,
            0.5602,
            0.5604,
            0.5607,
            0.561,
            0.5613,
            0.5616,
            0.5619,
            0.5622,
            0.5625,
            0.5628,
            0.5631,
            0.5633,
            0.5636,
            0.5639,
            0.5642,
            0.5645,
            0.5648,
            0.5651,
            0.5654,
            0.5657,
            0.566,
            0.5663,
            0.5666,
            0.5669,
            0.5672,
            0.5675,
            0.5678,
            0.5681,
            0.5684,
            0.5687,
            0.569,
            0.5693,
            0.5695,
            0.5698,
            0.5701,
            0.5704,
            0.5707,
            0.571,
            0.5713,
            0.5716,
            0.5719,
            0.5722,
            0.5725,
            0.5728,
            0.5731,
            0.5734,
            0.5737,
            0.574,
            0.5743,
            0.5746,
            0.5749,
            0.5752,
            0.5755,
            0.5758,
            0.5761,
            0.5765,
            0.5768,
            0.5771,
            0.5774,
            0.5777,
            0.578,
            0.5783,
            0.5786,
            0.5789,
            0.5792,
            0.5795,
            0.5798,
            0.5801,
            0.5804,
            0.5807,
            0.581,
            0.5813,
            0.5816,
            0.5819,
            0.5822,
            0.5826,
            0.5829,
            0.5832,
            0.5835,
            0.5838,
            0.5841,
            0.5844,
            0.5847,
            0.585,
            0.5853,
            0.5857,
            0.586,
            0.5863,
            0.5866,
            0.5869,
            0.5872,
            0.5875,
            0.5878,
            0.5881,
            0.5885,
            0.5888,
            0.5891,
            0.5894,
            0.5897,
            0.59,
            0.5903,
            0.5906,
            0.591,
            0.5913,
            0.5916,
            0.5919,
            0.5922,
            0.5925,
            0.5928,
            0.5932,
            0.5935,
            0.5938,
            0.5941,
            0.5944,
            0.5948,
            0.5951,
            0.5954,
            0.5957,
            0.596,
            0.5963,
            0.5967,
            0.597,
            0.5973,
            0.5976,
            0.5979,
            0.5983,
            0.5986,
            0.5989,
            0.5992,
            0.5995,
            0.5999,
            0.6002,
            0.6005,
            0.6008,
            0.6011,
            0.6015,
            0.6018,
            0.6021,
            0.6024,
            0.6028,
            0.6031,
            0.6034,
            0.6037,
            0.6041,
            0.6044,
            0.6047,
            0.605,
            0.6054,
            0.6057,
            0.606,
            0.6063,
            0.6067,
            0.607,
            0.6073,
            0.6076,
            0.608,
            0.6083,
            0.6086,
            0.609,
            0.6093,
            0.6096,
            0.6099,
            0.6103,
            0.6106,
            0.6109,
            0.6113,
            0.6116,
            0.6119,
            0.6123,
            0.6126,
            0.6129,
            0.6133,
            0.6136,
            0.6139,
            0.6143,
            0.6146,
            0.6149,
            0.6153,
            0.6156,
            0.6159,
            0.6163,
            0.6166,
            0.6169,
            0.6173,
            0.6176,
            0.6179,
            0.6183,
            0.6186,
            0.6189,
            0.6193,
            0.6196,
            0.62,
            0.6203,
            0.6206,
            0.621,
            0.6213,
            0.6216,
            0.622,
            0.6223,
            0.6227,
            0.623,
            0.6234,
            0.6237,
            0.624,
            0.6244,
            0.6247,
            0.625,
            0.6254,
            0.6257,
            0.6261,
            0.6264,
            0.6268,
            0.6271,
            0.6275,
            0.6278,
            0.6281,
            0.6285,
            0.6288,
            0.6292,
            0.6295,
            0.6299,
            0.6302,
            0.6306,
            0.6309,
            0.6312,
            0.6316,
            0.6319,
            0.6323,
            0.6326,
            0.633,
            0.6333,
            0.6337,
            0.634,
            0.6344,
            0.6347,
            0.6351,
            0.6354,
            0.6358,
            0.6361,
            0.6365,
            0.6368,
            0.6372,
            0.6375,
            0.6379,
            0.6382,
            0.6386,
            0.639,
            0.6393,
            0.6397,
            0.64,
            0.6404,
            0.6407,
            0.6411,
            0.6414,
            0.6418,
            0.6422,
            0.6425,
            0.6429,
            0.6432,
            0.6436,
            0.6439,
            0.6443,
            0.6446,
            0.645,
            0.6454,
            0.6457,
            0.6461,
            0.6464,
            0.6468,
            0.6472,
            0.6475,
            0.6479,
            0.6482,
            0.6486,
            0.649,
            0.6493,
            0.6497,
            0.6501,
            0.6504,
            0.6508,
            0.6511,
            0.6515,
            0.6519,
            0.6522,
            0.6526,
            0.653,
            0.6533,
            0.6537,
            0.6541,
            0.6544,
            0.6548,
            0.6552,
            0.6555,
            0.6559,
            0.6563,
            0.6566,
            0.657,
            0.6574,
            0.6577,
            0.6581,
            0.6585,
            0.6588,
            0.6592,
            0.6596,
            0.66,
            0.6603,
            0.6607,
            0.6611,
            0.6614,
            0.6618,
            0.6622,
            0.6626,
            0.6629,
            0.6633,
            0.6637,
            0.6641,
            0.6644,
            0.6648,
            0.6652,
            0.6656,
            0.6659,
            0.6663,
            0.6667,
            0.6671,
            0.6675,
            0.6678,
            0.6682,
            0.6686,
            0.669,
            0.6693,
            0.6697,
            0.6701,
            0.6705,
            0.6709,
            0.6712,
            0.6716,
            0.672,
            0.6724,
            0.6728,
            0.6731,
            0.6735,
            0.6739,
            0.6743,
            0.6747,
            0.6751,
            0.6754,
            0.6758,
            0.6762,
            0.6766,
            0.677,
            0.6774,
            0.6778,
            0.6781,
            0.6785,
            0.6789,
            0.6793,
            0.6797,
            0.6801,
            0.6805,
            0.6808,
            0.6812,
            0.6816,
            0.682,
            0.6824,
            0.6828,
            0.6832,
            0.6836,
            0.684,
            0.6844,
            0.6848,
            0.6852,
            0.6855,
            0.6859,
            0.6863,
            0.6867,
            0.6871,
            0.6875,
            0.6879,
            0.6883,
            0.6887,
            0.6891,
            0.6895,
            0.6899,
            0.6903,
            0.6907,
            0.6911,
            0.6915,
            0.6919,
            0.6923,
            0.6927,
            0.6931,
            0.6935,
            0.6939,
            0.6943,
            0.6947,
            0.6951,
            0.6955,
            0.6959,
            0.6963,
            0.6967,
            0.6971,
            0.6975,
            0.6979,
            0.6983,
            0.6987,
            0.6991,
            0.6995,
            0.6999,
            0.7003,
            0.7007,
            0.7011,
            0.7015,
            0.7019,
            0.7023,
            0.7027,
            0.7032,
            0.7036,
            0.704,
            0.7044,
            0.7048,
            0.7052,
            0.7056,
            0.706,
            0.7064,
            0.7068,
            0.7072,
            0.7077,
            0.7081,
            0.7085,
            0.7089,
            0.7093,
            0.7097,
            0.7101,
            0.7106,
            0.711,
            0.7114,
            0.7118,
            0.7122,
            0.7126,
            0.7131,
            0.7135,
            0.7139,
            0.7143,
            0.7147,
            0.7151,
            0.7156,
            0.716,
            0.7164,
            0.7168,
            0.7172,
            0.7176,
            0.7181,
            0.7185,
            0.7189,
            0.7193,
            0.7198,
            0.7202,
            0.7206,
            0.721,
            0.7215,
            0.7219,
            0.7223,
            0.7227,
            0.7231,
            0.7236,
            0.724,
            0.7244,
            0.7249,
            0.7253,
            0.7257,
            0.7261,
            0.7266,
            0.727,
            0.7274,
            0.7279,
            0.7283,
            0.7287,
            0.7292,
            0.7296,
            0.73,
            0.7304,
            0.7309,
            0.7313,
            0.7317,
            0.7322,
            0.7326,
            0.733,
            0.7335,
            0.7339,
            0.7343,
            0.7348,
            0.7352,
            0.7357,
            0.7361,
            0.7365,
            0.737,
            0.7374,
            0.7378,
            0.7383,
            0.7387,
            0.7392,
            0.7396,
            0.74,
            0.7405,
            0.7409,
            0.7414,
            0.7418,
            0.7423,
            0.7427,
            0.7431,
            0.7436,
            0.744,
            0.7445,
            0.7449,
            0.7454,
            0.7458,
            0.7462,
            0.7467,
            0.7471,
            0.7476,
            0.748,
            0.7485,
            0.7489,
            0.7494,
            0.7498,
            0.7503,
            0.7507,
            0.7512,
            0.7516,
            0.7521,
            0.7525,
            0.753,
            0.7534,
            0.7539,
            0.7543,
            0.7548,
            0.7553,
            0.7557,
            0.7562,
            0.7566,
            0.7571,
            0.7575,
            0.758,
            0.7584,
            0.7589,
            0.7594,
            0.7598,
            0.7603,
            0.7607,
            0.7612,
            0.7616,
            0.7621,
            0.7626,
            0.763,
            0.7635,
            0.764,
            0.7644,
            0.7649,
            0.7653,
            0.7658,
            0.7663,
            0.7667,
            0.7672,
            0.7677,
            0.7681,
            0.7686,
            0.7691,
            0.7695,
            0.77,
            0.7705,
            0.7709,
            0.7714,
            0.7719,
            0.7723,
            0.7728,
            0.7733,
            0.7737,
            0.7742,
            0.7747,
            0.7752,
            0.7756,
            0.7761,
            0.7766,
            0.7771,
            0.7775,
            0.778,
            0.7785,
            0.779,
            0.7794,
            0.7799,
            0.7804,
            0.7809,
            0.7813,
            0.7818,
            0.7823,
            0.7828,
            0.7833,
            0.7837,
            0.7842,
            0.7847,
            0.7852,
            0.7857,
            0.7861,
            0.7866,
            0.7871,
            0.7876,
            0.7881,
            0.7886,
            0.789,
            0.7895,
            0.79,
            0.7905,
            0.791,
            0.7915,
            0.792,
            0.7924,
            0.793,
            0.7934,
            0.7939,
            0.7944,
            0.7949,
            0.7954,
            0.7959,
            0.7964,
            0.7969,
            0.7974,
            0.7979,
            0.7983,
            0.7988,
            0.7993,
            0.7998,
            0.8003,
            0.8008,
            0.8013,
            0.8018,
            0.8023,
            0.8028,
            0.8033,
            0.8038,
            0.8043,
            0.8048,
            0.8053,
            0.8058,
            0.8063,
            0.8068,
            0.8073,
            0.8078,
            0.8083,
            0.8088,
            0.8093,
            0.8098,
            0.8103,
            0.8108,
            0.8113,
            0.8118,
            0.8123,
            0.8128,
            0.8134,
            0.8139,
            0.8144,
            0.8149,
            0.8154,
            0.8159,
            0.8164,
            0.8169,
            0.8174,
            0.818,
            0.8185,
            0.819,
            0.8195,
            0.82,
            0.8205,
            0.821,
            0.8216,
            0.8221,
            0.8226,
            0.8231,
            0.8236,
            0.8241,
            0.8247,
            0.8252,
            0.8257,
            0.8262,
            0.8267,
            0.8272,
            0.8278,
            0.8283,
            0.8288,
            0.8293,
            0.8299,
            0.8304,
            0.8309,
            0.8314,
            0.832,
            0.8325,
            0.833,
            0.8335,
            0.8341,
            0.8346,
            0.8351,
            0.8356,
            0.8362,
            0.8367,
            0.8372,
            0.8378,
            0.8383,
            0.8388,
            0.8394,
            0.8399,
            0.8404,
            0.8409,
            0.8415,
            0.842,
            0.8426,
            0.8431,
            0.8436,
            0.8442,
            0.8447,
            0.8452,
            0.8458,
            0.8463,
            0.8469,
            0.8474,
            0.8479,
            0.8485,
            0.849,
            0.8496,
            0.8501,
            0.8506,
            0.8512,
            0.8517,
            0.8523,
            0.8528,
            0.8534,
            0.8539,
            0.8545,
            0.855,
            0.8555,
            0.8561,
            0.8566,
            0.8572,
            0.8577,
            0.8583,
            0.8588,
            0.8594,
            0.8599,
            0.8605,
            0.8611,
            0.8616,
            0.8622,
            0.8627,
            0.8633,
            0.8638,
            0.8644,
            0.8649,
            0.8655,
            0.866,
            0.8666,
            0.8672,
            0.8677,
            0.8683,
            0.8688,
            0.8694,
            0.87,
            0.8705,
            0.8711,
            0.8717,
            0.8722,
            0.8728,
            0.8733,
            0.8739,
            0.8745,
            0.875,
            0.8756,
            0.8762,
            0.8767,
            0.8773,
            0.8779,
            0.8785,
            0.879,
            0.8796,
            0.8802,
            0.8807,
            0.8813,
            0.8819,
            0.8825,
            0.883,
            0.8836,
            0.8842,
            0.8848,
            0.8853,
            0.8859,
            0.8865,
            0.8871,
            0.8877,
            0.8882,
            0.8888,
            0.8894,
            0.89,
            0.8905,
            0.8911,
            0.8917,
            0.8923,
            0.8929,
            0.8935,
            0.8941,
            0.8946,
            0.8952,
            0.8958,
            0.8964,
            0.897,
            0.8976,
            0.8982,
            0.8987,
            0.8993,
            0.8999,
            0.9005,
            0.9011,
            0.9017,
            0.9023,
            0.9029,
            0.9035,
            0.9041,
            0.9047,
            0.9053,
            0.9059,
            0.9065,
            0.9071,
            0.9077,
            0.9083,
            0.9088,
            0.9095,
            0.9101,
            0.9107,
            0.9113,
            0.9119,
            0.9125,
            0.9131,
            0.9137,
            0.9143,
            0.9149,
            0.9155,
            0.9161,
            0.9167,
            0.9173,
            0.9179,
            0.9185,
            0.9191,
            0.9197,
            0.9204,
            0.921,
            0.9216,
            0.9222,
            0.9228,
            0.9234,
            0.924,
            0.9247,
            0.9253,
            0.9259,
            0.9265,
            0.9271,
            0.9277,
            0.9284,
            0.929,
            0.9296,
            0.9302,
            0.9308,
            0.9315,
            0.9321,
            0.9327,
            0.9333,
            0.9339,
            0.9346,
            0.9352,
            0.9358,
            0.9365,
            0.9371,
            0.9377,
            0.9383,
            0.939,
            0.9396,
            0.9402,
            0.9409,
            0.9415,
            0.9421,
            0.9428,
            0.9434,
            0.944,
            0.9447,
            0.9453,
            0.9459,
            0.9466,
            0.9472,
            0.9478,
            0.9485,
            0.9491,
            0.9498,
            0.9504,
            0.951,
            0.9517,
            0.9523,
            0.953,
            0.9536,
            0.9543,
            0.9549,
            0.9556,
            0.9562,
            0.9569,
            0.9575,
            0.9581,
            0.9588,
            0.9594,
            0.9601,
            0.9607,
            0.9614,
            0.9621,
            0.9627,
            0.9634,
            0.964,
            0.9647,
            0.9653,
            0.966,
            0.9666,
            0.9673,
            0.968,
            0.9686,
            0.9693,
            0.9699,
            0.9706,
            0.9713,
            0.9719,
            0.9726,
            0.9733,
            0.9739,
            0.9746,
            0.9752,
            0.9759,
            0.9766,
            0.9773,
            0.9779,
            0.9786,
            0.9793,
            0.9799,
            0.9806,
            0.9813,
            0.9819,
            0.9826,
            0.9833,
            0.984,
            0.9846,
            0.9853,
            0.986,
            0.9867,
            0.9874,
            0.988,
            0.9887,
            0.9894,
            0.9901,
            0.9908,
            0.9915,
            0.9921,
            0.9928,
            0.9935,
            0.9942,
            0.9949,
            0.9956,
            0.9963,
            0.9969,
            0.9976,
            0.9983,
            0.999,
            0.9997,
            1.0004,
            1.0011,
            1.0018,
            1.0025,
            1.0032,
            1.0039,
            1.0046,
            1.0053,
            1.006,
            1.0066,
            1.0074,
            1.0081,
            1.0088,
            1.0095,
            1.0102,
            1.0109,
            1.0116,
            1.0123,
            1.013,
            1.0137,
            1.0144,
            1.0151,
            1.0158,
            1.0165,
            1.0172,
            1.0179,
            1.0187,
            1.0194,
            1.0201,
            1.0208,
            1.0215,
            1.0222,
            1.0229,
            1.0236,
            1.0244,
            1.0251,
            1.0258,
            1.0265,
            1.0272,
            1.028,
            1.0287,
            1.0294,
            1.0301,
            1.0308,
            1.0316,
            1.0323,
            1.033,
            1.0337,
            1.0345,
            1.0352,
            1.0359,
            1.0367,
            1.0374,
            1.0381,
            1.0389,
            1.0396,
            1.0403,
            1.0411,
            1.0418,
            1.0425,
            1.0433,
            1.044,
            1.0448,
            1.0455,
            1.0462,
            1.047,
            1.0477,
            1.0485,
            1.0492,
            1.0499,
            1.0507,
            1.0514,
            1.0522,
            1.0529,
            1.0537,
            1.0544,
            1.0552,
            1.0559,
            1.0567,
            1.0574,
            1.0582,
            1.0589,
            1.0597,
            1.0604,
            1.0612,
            1.062,
            1.0627,
            1.0635,
            1.0642,
            1.065,
            1.0658,
            1.0665,
            1.0673,
            1.068,
            1.0688,
            1.0696,
            1.0703,
            1.0711,
            1.0719,
            1.0727,
            1.0734,
            1.0742,
            1.075,
            1.0757,
            1.0765,
            1.0773,
            1.0781,
            1.0788,
            1.0796,
            1.0804,
            1.0812,
            1.0819,
            1.0827,
            1.0835,
            1.0843,
            1.0851,
            1.0858,
            1.0866,
            1.0874,
            1.0882,
            1.089,
            1.0898,
            1.0906,
            1.0913,
            1.0921,
            1.0929,
            1.0937,
            1.0945,
            1.0953,
            1.0961,
            1.0969,
            1.0977,
            1.0985,
            1.0993,
            1.1001,
            1.1009,
            1.1017,
            1.1025,
            1.1033,
            1.1041,
            1.1049,
            1.1057,
            1.1065,
            1.1073,
            1.1081,
            1.1089,
            1.1097,
            1.1105,
            1.1114,
            1.1121,
            1.113,
            1.1138,
            1.1146,
            1.1154,
            1.1162,
            1.117,
            1.1179,
            1.1187,
            1.1195,
            1.1203,
            1.1211,
            1.122,
            1.1228,
            1.1236,
            1.1244,
            1.1253,
            1.1261,
            1.1269,
            1.1277,
            1.1286,
            1.1294,
            1.1302,
            1.1311,
            1.1319,
            1.1327,
            1.1336,
            1.1344,
            1.1352,
            1.1361,
            1.1369,
            1.1378,
            1.1386,
            1.1394,
            1.1403,
            1.1411,
            1.142,
            1.1428,
            1.1437,
            1.1445,
            1.1454,
            1.1462,
            1.1471,
            1.1479,
            1.1488,
            1.1496,
            1.1505,
            1.1513,
            1.1522,
            1.153,
            1.1539,
            1.1547,
            1.1556,
            1.1565,
            1.1573,
            1.1582,
            1.159,
            1.1599,
            1.1608,
            1.1617,
            1.1625,
            1.1634,
            1.1642,
            1.1651,
            1.166,
            1.1669,
            1.1677,
            1.1686,
            1.1695,
            1.1704,
            1.1712,
            1.1721,
            1.173,
            1.1739,
            1.1748,
            1.1756,
            1.1765,
            1.1774,
            1.1783,
            1.1792,
            1.1801,
            1.1809,
            1.1818,
            1.1827,
            1.1836,
            1.1845,
            1.1854,
            1.1863,
            1.1872,
            1.1881,
            1.189,
            1.1899,
            1.1908,
            1.1917,
            1.1926,
            1.1935,
            1.1944,
            1.1953,
            1.1962,
            1.1971,
            1.198,
            1.1989,
            1.1998,
            1.2007,
            1.2017,
            1.2026,
            1.2035,
            1.2044,
            1.2053,
            1.2062,
            1.2072,
            1.2081,
            1.209,
            1.2099,
            1.2108,
            1.2117,
            1.2127,
            1.2136,
            1.2145,
            1.2155,
            1.2164,
            1.2173,
            1.2182,
            1.2192,
            1.2201,
            1.221,
            1.222,
            1.2229,
            1.2238,
            1.2248,
            1.2257,
            1.2267,
            1.2276,
            1.2285,
            1.2295,
            1.2304,
            1.2314,
            1.2323,
            1.2333,
            1.2342,
            1.2352,
            1.2361,
            1.2371,
            1.238,
            1.239,
            1.2399,
            1.2409,
            1.2418,
            1.2428,
            1.2438,
            1.2447,
            1.2457,
            1.2467,
            1.2476,
            1.2486,
            1.2495,
            1.2505,
            1.2515,
            1.2525,
            1.2534,
            1.2544,
            1.2554,
            1.2564,
            1.2573,
            1.2583,
            1.2593,
            1.2603,
            1.2612,
            1.2622,
            1.2632,
            1.2642,
            1.2652,
            1.2662,
            1.2671,
            1.2681,
            1.2691,
            1.2701,
            1.2711,
            1.2721,
            1.2731,
            1.2741,
            1.2751,
            1.2761,
            1.2771,
            1.2781,
            1.2791,
            1.2801,
            1.2811,
            1.2821,
            1.2831,
            1.2841,
            1.2851,
            1.2861,
            1.2871,
            1.2881,
            1.2891,
            1.2902,
            1.2912,
            1.2922,
            1.2932,
            1.2942,
            1.2952,
            1.2963,
            1.2973,
            1.2983,
            1.2993,
            1.3004,
            1.3014,
            1.3024,
            1.3034,
            1.3045,
            1.3055,
            1.3066,
            1.3076,
            1.3086,
            1.3097,
            1.3107,
            1.3117,
            1.3128,
            1.3138,
            1.3149,
            1.3159,
            1.3169,
            1.318,
            1.319,
            1.3201,
            1.3211,
            1.3222,
            1.3232,
            1.3243,
            1.3254,
            1.3264,
            1.3275,
            1.3285,
            1.3296,
            1.3307,
            1.3317,
            1.3328,
            1.3338,
            1.3349,
            1.336,
            1.3371,
            1.3381,
            1.3392,
            1.3403,
            1.3413,
            1.3424,
            1.3435,
            1.3446,
            1.3457,
            1.3467,
            1.3478,
            1.3489,
            1.35,
            1.3511,
            1.3522,
            1.3533,
            1.3543,
            1.3554,
            1.3565,
            1.3576,
            1.3587,
            1.3598,
            1.3609,
            1.362,
            1.3631,
            1.3642,
            1.3653,
            1.3664,
            1.3675,
            1.3686,
            1.3698,
            1.3709,
            1.372,
            1.3731,
            1.3742,
            1.3753,
            1.3764,
            1.3776,
            1.3787,
            1.3798,
            1.3809,
            1.382,
            1.3832,
            1.3843,
            1.3854,
            1.3866,
            1.3877,
            1.3888,
            1.39,
            1.3911,
            1.3922,
            1.3934,
            1.3945,
            1.3956,
            1.3968,
            1.3979,
            1.3991,
            1.4002,
            1.4014,
            1.4025,
            1.4037,
            1.4048,
            1.406,
            1.4071,
            1.4083,
            1.4094,
            1.4106,
            1.4118,
            1.4129,
            1.4141,
            1.4153,
            1.4164,
            1.4176,
            1.4188,
            1.4199,
            1.4211,
            1.4223,
            1.4234,
            1.4246,
            1.4258,
            1.427,
            1.4282,
            1.4294,
            1.4305,
            1.4317,
            1.4329,
            1.4341,
            1.4353,
            1.4365,
            1.4377,
            1.4389,
            1.4401,
            1.4413,
            1.4424,
            1.4436,
            1.4449,
            1.4461,
            1.4473,
            1.4485,
            1.4497,
            1.4509,
            1.4521,
            1.4533,
            1.4545,
            1.4557,
            1.457,
            1.4582,
            1.4594,
            1.4606,
            1.4618,
            1.4631,
            1.4643,
            1.4655,
            1.4668,
            1.468,
            1.4692,
            1.4704,
            1.4717,
            1.4729,
            1.4742,
            1.4754,
            1.4766,
            1.4779,
            1.4791,
            1.4804,
            1.4816,
            1.4829,
            1.4841,
            1.4854,
            1.4866,
            1.4879,
            1.4891,
            1.4904,
            1.4917,
            1.4929,
            1.4942,
            1.4955,
            1.4967,
            1.498,
            1.4993,
            1.5005,
            1.5018,
            1.5031,
            1.5044,
            1.5056,
            1.5069,
            1.5082,
            1.5095,
            1.5108,
            1.5121,
            1.5133,
            1.5146,
            1.5159,
            1.5172,
            1.5185,
            1.5198,
            1.5211,
            1.5224,
            1.5237,
            1.525,
            1.5263,
            1.5276,
            1.5289,
            1.5302,
            1.5316,
            1.5329,
            1.5342,
            1.5355,
            1.5368,
            1.5381,
            1.5395,
            1.5408,
            1.5421,
            1.5434,
            1.5448,
            1.5461,
            1.5474,
            1.5488,
            1.5501,
            1.5514,
            1.5528,
            1.5541,
            1.5555,
            1.5568,
            1.5581,
            1.5595,
            1.5608,
            1.5622,
            1.5635,
            1.5649,
            1.5663,
            1.5676,
            1.569,
            1.5703,
            1.5717,
            1.5731,
            1.5744,
            1.5758,
            1.5772,
            1.5785,
            1.5799,
            1.5813,
            1.5827,
            1.584,
            1.5854,
            1.5868,
            1.5882,
            1.5896,
            1.591,
            1.5924,
            1.5938,
            1.5951,
            1.5965,
            1.5979,
            1.5993,
            1.6007,
            1.6021,
            1.6035,
            1.605,
            1.6064,
            1.6078,
            1.6092,
            1.6106,
            1.612,
            1.6134,
            1.6149,
            1.6163,
            1.6177,
            1.6191,
            1.6206,
            1.622,
            1.6234,
            1.6249,
            1.6263,
            1.6277,
            1.6292,
            1.6306,
            1.6321,
            1.6335,
            1.6349,
            1.6364,
            1.6378,
            1.6393,
            1.6407,
            1.6422,
            1.6437,
            1.6451,
            1.6466,
            1.6481,
            1.6495,
            1.651,
            1.6525,
            1.6539,
            1.6554,
            1.6569,
            1.6583,
            1.6598,
            1.6613,
            1.6628,
            1.6643,
            1.6658,
            1.6673,
            1.6688,
            1.6702,
            1.6717,
            1.6732,
            1.6747,
            1.6762,
            1.6778,
            1.6792,
            1.6808,
            1.6823,
            1.6838,
            1.6853,
            1.6868,
            1.6883,
            1.6898,
            1.6914,
            1.6929,
            1.6944,
            1.696,
            1.6975,
            1.699,
            1.7006,
            1.7021,
            1.7036,
            1.7052,
            1.7067,
            1.7083,
            1.7098,
            1.7114,
            1.7129,
            1.7145,
            1.716,
            1.7176,
            1.7191,
            1.7207,
            1.7223,
            1.7238,
            1.7254,
            1.727,
            1.7285,
            1.7301,
            1.7317,
            1.7333,
            1.7349,
            1.7364,
            1.738,
            1.7396,
            1.7412,
            1.7428,
            1.7444,
            1.746,
            1.7476,
            1.7492,
            1.7508,
            1.7524,
            1.754,
            1.7556,
            1.7572,
            1.7588,
            1.7605,
            1.7621,
            1.7637,
            1.7653,
            1.7669,
            1.7686,
            1.7702,
            1.7718,
            1.7735,
            1.7751,
            1.7767,
            1.7784,
            1.78,
            1.7817,
            1.7833,
            1.785,
            1.7866,
            1.7883,
            1.7899,
            1.7916,
            1.7933,
            1.7949,
            1.7966,
            1.7983,
            1.7999,
            1.8016,
            1.8033,
            1.805,
            1.8066,
            1.8083,
            1.81,
            1.8117,
            1.8134,
            1.8151,
            1.8168,
            1.8185,
            1.8202,
            1.8219,
            1.8236,
            1.8253,
            1.827,
            1.8287,
            1.8304,
            1.8321,
            1.8339,
            1.8356,
            1.8373,
            1.839,
            1.8408,
            1.8425,
            1.8442,
            1.846,
            1.8477,
            1.8494,
            1.8512,
            1.8529,
            1.8547,
            1.8564,
            1.8582,
            1.8599,
            1.8617,
            1.8635,
            1.8652,
            1.867,
            1.8687,
            1.8705,
            1.8723,
            1.8741,
            1.8758,
            1.8776,
            1.8794,
            1.8812,
            1.883,
            1.8848,
            1.8866,
            1.8884,
            1.8902,
            1.892,
            1.8938,
            1.8956,
            1.8974,
            1.8992,
            1.901,
            1.9028,
            1.9046,
            1.9065,
            1.9083,
            1.9101,
            1.9119,
            1.9138,
            1.9156,
            1.9175,
            1.9193,
            1.9211,
            1.923,
            1.9248,
            1.9267,
            1.9285,
            1.9304,
            1.9322,
            1.9341,
            1.936,
            1.9378,
            1.9397,
            1.9416,
            1.9435,
            1.9453,
            1.9472,
            1.9491,
            1.951,
            1.9529,
            1.9548,
            1.9567,
            1.9586,
            1.9605,
            1.9624,
            1.9643,
            1.9662,
            1.9681,
            1.97,
            1.9719,
            1.9738,
            1.9758,
            1.9777,
            1.9796,
            1.9815,
            1.9835,
            1.9854,
            1.9874,
            1.9893,
            1.9912,
            1.9932,
            1.9951,
            1.9971,
            1.999,
            2.001,
            2.003,
            2.0049,
            2.0069,
            2.0089,
            2.0108,
            2.0128,
            2.0148,
            2.0168,
            2.0188,
            2.0208,
            2.0227,
            2.0247,
            2.0267,
            2.0287,
            2.0307,
            2.0327,
            2.0348,
            2.0368,
            2.0388,
            2.0408,
            2.0428,
            2.0449,
            2.0469,
            2.0489,
            2.0509,
            2.053,
            2.055,
            2.0571,
            2.0591,
            2.0612,
            2.0632,
            2.0653,
            2.0673,
            2.0694,
            2.0714,
            2.0735,
            2.0756,
            2.0776,
            2.0797,
            2.0818,
            2.0839,
            2.086,
            2.0881,
            2.0901,
            2.0923,
            2.0943,
            2.0964,
            2.0986,
            2.1007,
            2.1028,
            2.1049,
            2.107,
            2.1091,
            2.1112,
            2.1134,
            2.1155,
            2.1176,
            2.1198,
            2.1219,
            2.1241,
            2.1262,
            2.1284,
            2.1305,
            2.1327,
            2.1348,
            2.137,
            2.1391,
            2.1413,
            2.1435,
            2.1457,
            2.1478,
            2.15,
            2.1522,
            2.1544,
            2.1566,
            2.1588,
            2.161,
            2.1632,
            2.1654,
            2.1676,
            2.1698,
            2.172,
            2.1743,
            2.1765,
            2.1787,
            2.1809,
            2.1832,
            2.1854,
            2.1876,
            2.1899,
            2.1921,
            2.1944,
            2.1966,
            2.1989,
            2.2012,
            2.2034,
            2.2057,
            2.208,
            2.2102,
            2.2125,
            2.2148,
            2.2171,
            2.2194,
            2.2217,
            2.2239,
            2.2263,
            2.2286,
            2.2309,
            2.2332,
            2.2355,
            2.2378,
            2.2401,
            2.2425,
            2.2448,
            2.2471,
            2.2495,
            2.2518,
            2.2541,
            2.2565,
            2.2588,
            2.2612,
            2.2635,
            2.2659,
            2.2683,
            2.2706,
            2.273,
            2.2754,
            2.2778,
            2.2801,
            2.2825,
            2.2849,
            2.2873,
            2.2897,
            2.2921,
            2.2945,
            2.2969,
            2.2994,
            2.3018,
            2.3042,
            2.3066,
            2.309,
            2.3115,
            2.3139,
            2.3164,
            2.3188,
            2.3212,
            2.3237,
            2.3262,
            2.3286,
            2.3311,
            2.3336,
            2.336,
            2.3385,
            2.341,
            2.3435,
            2.3459,
            2.3484,
            2.3509,
            2.3534,
            2.3559,
            2.3584,
            2.361,
            2.3635,
            2.366,
            2.3685,
            2.371,
            2.3736,
            2.3761,
            2.3787,
            2.3812,
            2.3837,
            2.3863,
            2.3889,
            2.3914,
            2.394,
            2.3965,
            2.3991,
            2.4017,
            2.4043,
            2.4069,
            2.4095,
            2.412,
            2.4146,
            2.4173,
            2.4199,
            2.4225,
            2.4251,
            2.4277,
            2.4303,
            2.4329,
            2.4356,
            2.4382,
            2.4409,
            2.4435,
            2.4461,
            2.4488,
            2.4515,
            2.4541,
            2.4568,
            2.4595,
            2.4621,
            2.4648,
            2.4675,
            2.4702,
            2.4729,
            2.4756,
            2.4783,
            2.481,
            2.4837,
            2.4864,
            2.4891,
            2.4918,
            2.4946,
            2.4973,
            2.5,
            2.5028,
            2.5055,
            2.5083,
            2.511,
            2.5138,
            2.5166,
            2.5193,
            2.5221,
            2.5249,
            2.5277,
            2.5305,
            2.5332,
            2.536,
            2.5388,
            2.5416,
            2.5445,
            2.5473,
            2.5501,
            2.5529,
            2.5557,
            2.5586,
            2.5614,
            2.5643,
            2.5671,
            2.57,
            2.5728,
            2.5757,
            2.5785,
            2.5814,
            2.5843,
            2.5872,
            2.5901,
            2.593,
            2.5959,
            2.5988,
            2.6017,
            2.6046,
            2.6075,
            2.6104,
            2.6133,
            2.6163,
            2.6192,
            2.6221,
            2.6251,
            2.628,
            2.631,
            2.6339,
            2.6369,
            2.6399,
            2.6429,
            2.6458,
            2.6488,
            2.6518,
            2.6548,
            2.6578,
            2.6608,
            2.6638,
            2.6668,
            2.6699,
            2.6729,
            2.6759,
            2.679,
            2.682,
            2.685,
            2.6881,
            2.6912,
            2.6942,
            2.6973,
            2.7004,
            2.7034,
            2.7065,
            2.7096,
            2.7127,
            2.7158,
            2.7189,
            2.722,
            2.7251,
            2.7283,
            2.7314,
            2.7345,
            2.7376,
            2.7408,
            2.7439,
            2.7471,
            2.7502,
            2.7534,
            2.7566,
            2.7598,
            2.7629,
            2.7661,
            2.7693,
            2.7725,
            2.7757,
            2.7789,
            2.7821,
            2.7854,
            2.7886,
            2.7918,
            2.7951,
            2.7983,
            2.8015,
            2.8048,
            2.808,
            2.8113,
            2.8146,
            2.8179,
            2.8211,
            2.8244,
            2.8277,
            2.831,
            2.8343,
            2.8376,
            2.8409,
            2.8443,
            2.8476,
            2.8509,
            2.8543,
            2.8576,
            2.861,
            2.8643,
            2.8677,
            2.8711,
            2.8744,
            2.8778,
            2.8812,
            2.8846,
            2.888,
            2.8914,
            2.8948,
            2.8982,
            2.9016,
            2.9051,
            2.9085,
            2.912,
            2.9154,
            2.9189,
            2.9223,
            2.9258,
            2.9293,
            2.9327,
            2.9362,
            2.9397,
            2.9432,
            2.9467,
            2.9502,
            2.9537,
            2.9573,
            2.9608,
            2.9643,
            2.9679,
            2.9714,
            2.975,
            2.9785,
            2.9821,
            2.9857,
            2.9892,
            2.9928,
            2.9964,
            3.0,
            3.0036,
            3.0072,
            3.0109,
            3.0145,
            3.0181,
            3.0217,
            3.0254,
            3.0291,
            3.0327,
            3.0364,
            3.04,
            3.0437,
            3.0474,
            3.0511,
            3.0548,
            3.0585,
            3.0622,
            3.0659,
            3.0697,
            3.0734,
            3.0771,
            3.0809,
            3.0846,
            3.0884,
            3.0922,
            3.0959,
            3.0997,
            3.1035,
            3.1073,
            3.1111,
            3.1149,
            3.1187,
            3.1225,
            3.1264,
            3.1302,
            3.134,
            3.1379,
            3.1417,
            3.1456,
            3.1495,
            3.1534,
            3.1573,
            3.1611,
            3.1651,
            3.1689,
            3.1729,
            3.1768,
            3.1807,
            3.1847,
            3.1886,
            3.1926,
            3.1965,
            3.2005,
            3.2045,
            3.2084,
            3.2124,
            3.2164,
            3.2204,
            3.2244,
            3.2284,
            3.2325,
            3.2365,
            3.2405,
            3.2446,
            3.2486,
            3.2527,
            3.2568,
            3.2609,
            3.265,
            3.269,
            3.2732,
            3.2773,
            3.2814,
            3.2855,
            3.2896,
            3.2938,
            3.2979,
            3.3021,
            3.3062,
            3.3104,
            3.3146,
            3.3188,
            3.323,
            3.3272,
            3.3314,
            3.3356,
            3.3398,
            3.3441,
            3.3483,
            3.3526,
            3.3568,
            3.3611,
            3.3654,
            3.3697,
            3.374,
            3.3783,
            3.3826,
            3.3869,
            3.3912,
            3.3956,
            3.3999,
            3.4042,
            3.4086,
            3.413,
            3.4174,
            3.4218,
            3.4261,
            3.4305,
            3.435,
            3.4394,
            3.4438,
            3.4482,
            3.4527,
            3.4571,
            3.4616,
            3.4661,
            3.4706,
            3.475,
            3.4795,
            3.484,
            3.4886,
            3.4931,
            3.4976,
            3.5021,
            3.5067,
            3.5113,
            3.5158,
            3.5204,
            3.525,
            3.5296,
            3.5342,
            3.5388,
            3.5434,
            3.548,
            3.5527,
            3.5573,
            3.562,
            3.5667,
            3.5713,
            3.576,
            3.5807,
            3.5854,
            3.5901,
            3.5949,
            3.5996,
            3.6043,
            3.6091,
            3.6138,
            3.6186,
            3.6234,
            3.6282,
            3.633,
            3.6378,
            3.6426,
            3.6474,
            3.6523,
            3.6571,
            3.662,
            3.6668,
            3.6717,
            3.6766,
            3.6815,
            3.6864,
            3.6913,
            3.6962,
            3.7012,
            3.7061,
            3.7111,
            3.716,
            3.721,
            3.726,
            3.731,
            3.736,
            3.741,
            3.746,
            3.7511,
            3.7561,
            3.7612,
            3.7662,
            3.7713,
            3.7764,
            3.7815,
            3.7866,
            3.7917,
            3.7968,
            3.802,
            3.8071,
            3.8123,
            3.8174,
            3.8226,
            3.8278,
            3.833,
            3.8382,
            3.8434,
            3.8487,
            3.8539,
            3.8592,
            3.8644,
            3.8697,
            3.875,
            3.8803,
            3.8856,
            3.8909,
            3.8963,
            3.9016,
            3.9069,
            3.9123,
            3.9177,
            3.9231,
            3.9285,
            3.9339,
            3.9393,
            3.9447,
            3.9502,
            3.9556,
            3.9611,
            3.9665,
            3.972,
            3.9775,
            3.983,
            3.9886,
            3.9941,
            3.9996
          ],
          [
            2.661,
            2.768,
            2.654,
            2.804,
            2.615,
            2.643,
            2.629,
            2.47,
            2.345,
            2.424,
            2.411,
            2.418,
            2.287,
            2.344,
            2.283,
            2.323,
            2.215,
            2.119,
            2.168,
            2.099,
            2.051,
            1.903,
            1.73,
            1.814,
            1.87,
            1.754,
            1.782,
            1.891,
            1.727,
            2.03,
            2.191,
            2.222,
            2.427,
            2.536,
            2.628,
            2.355,
            2.357,
            2.294,
            2.232,
            2.096,
            2.108,
            1.956,
            1.876,
            1.985,
            1.981,
            1.862,
            1.774,
            1.678,
            1.593,
            1.548,
            1.595,
            1.463,
            1.45,
            1.467,
            1.35,
            1.322,
            1.205,
            1.202,
            1.353,
            1.26,
            1.27,
            1.351,
            1.285,
            1.22,
            1.206,
            1.285,
            1.238,
            1.19,
            1.104,
            1.096,
            1.157,
            1.144,
            1.149,
            1.066,
            1.138,
            1.054,
            0.9523,
            0.8651,
            0.9034,
            0.844,
            0.8823,
            0.8561,
            0.9824,
            0.8739,
            0.8425,
            0.9667,
            0.9792,
            0.903,
            0.9743,
            0.9039,
            0.9919,
            0.9221,
            0.869,
            0.9932,
            1.003,
            0.9821,
            1.072,
            1.042,
            1.079,
            1.136,
            1.089,
            1.127,
            1.176,
            1.043,
            1.129,
            1.198,
            1.085,
            1.156,
            1.106,
            1.251,
            1.192,
            1.342,
            1.476,
            1.618,
            1.709,
            1.834,
            2.081,
            2.273,
            2.512,
            2.788,
            2.948,
            3.079,
            3.31,
            3.368,
            3.401,
            3.438,
            3.427,
            3.451,
            3.326,
            3.383,
            3.014,
            3.079,
            2.801,
            2.939,
            2.816,
            2.654,
            2.597,
            2.575,
            2.764,
            2.662,
            2.718,
            2.818,
            2.795,
            2.701,
            2.515,
            2.442,
            2.189,
            2.017,
            1.876,
            1.721,
            1.577,
            1.498,
            1.634,
            1.519,
            1.431,
            1.367,
            1.476,
            1.444,
            1.508,
            1.311,
            1.377,
            1.456,
            1.479,
            1.43,
            1.456,
            1.386,
            1.277,
            1.227,
            1.101,
            1.107,
            1.045,
            0.9155,
            0.8155,
            0.9224,
            0.8777,
            0.8302,
            0.7995,
            0.7564,
            0.6968,
            0.8863,
            0.8654,
            0.9025,
            0.9201,
            0.9793,
            0.9799,
            1.336,
            1.427,
            1.619,
            1.753,
            1.892,
            1.919,
            2.067,
            2.184,
            1.948,
            2.081,
            2.193,
            2.338,
            2.377,
            2.538,
            2.734,
            2.784,
            3.042,
            3.099,
            3.045,
            3.101,
            3.01,
            2.788,
            2.511,
            2.551,
            2.334,
            1.968,
            2.016,
            1.906,
            1.732,
            1.678,
            1.539,
            1.508,
            1.442,
            1.524,
            1.298,
            1.286,
            1.282,
            1.216,
            1.184,
            1.202,
            1.152,
            1.026,
            1.023,
            1.044,
            1.063,
            0.9601,
            1.068,
            0.954,
            1.089,
            1.229,
            1.192,
            1.332,
            1.403,
            1.448,
            1.527,
            1.534,
            1.44,
            1.497,
            1.429,
            1.302,
            1.105,
            1.083,
            0.9491,
            1.043,
            1.016,
            1.082,
            0.9835,
            1.051,
            0.9912,
            1.056,
            0.9718,
            1.096,
            1.14,
            1.154,
            1.051,
            1.148,
            1.162,
            1.2,
            1.229,
            1.362,
            1.475,
            1.331,
            1.35,
            1.283,
            1.282,
            1.183,
            1.068,
            1.136,
            1.181,
            1.156,
            1.152,
            1.184,
            1.225,
            1.203,
            1.365,
            1.464,
            1.255,
            1.329,
            1.345,
            1.529,
            1.504,
            1.421,
            1.435,
            1.523,
            1.555,
            1.575,
            1.691,
            1.671,
            1.708,
            1.887,
            1.997,
            1.954,
            2.103,
            2.179,
            2.265,
            2.404,
            2.504,
            2.525,
            2.566,
            2.672,
            2.898,
            2.751,
            2.992,
            2.955,
            3.079,
            3.13,
            3.265,
            3.349,
            3.425,
            3.459,
            3.576,
            3.775,
            3.73,
            3.832,
            3.849,
            3.851,
            3.865,
            3.716,
            3.816,
            3.923,
            3.842,
            3.953,
            3.946,
            3.647,
            3.787,
            3.538,
            3.349,
            3.369,
            3.177,
            3.027,
            2.847,
            2.803,
            2.658,
            2.524,
            2.573,
            2.488,
            2.297,
            2.368,
            2.204,
            2.144,
            2.109,
            2.15,
            2.029,
            2.098,
            2.171,
            2.24,
            2.24,
            2.323,
            2.365,
            2.312,
            2.376,
            2.248,
            2.218,
            1.952,
            1.759,
            1.628,
            1.455,
            1.155,
            1.138,
            1.147,
            1.111,
            1.055,
            1.02,
            1.138,
            1.13,
            1.058,
            1.046,
            0.9519,
            0.983,
            0.9673,
            0.9524,
            0.9548,
            0.8972,
            0.8913,
            0.8634,
            1.073,
            1.005,
            1.081,
            1.125,
            1.172,
            1.103,
            1.044,
            1.084,
            1.055,
            1.113,
            1.109,
            1.132,
            1.294,
            1.33,
            1.131,
            1.257,
            1.239,
            1.293,
            1.178,
            1.362,
            1.432,
            1.27,
            1.28,
            1.381,
            1.413,
            1.395,
            1.391,
            1.474,
            1.558,
            1.424,
            1.519,
            1.586,
            1.633,
            1.71,
            1.899,
            1.968,
            1.954,
            2.134,
            2.223,
            2.308,
            2.305,
            2.316,
            2.445,
            2.561,
            2.689,
            2.763,
            2.819,
            2.844,
            2.889,
            3.048,
            2.996,
            3.234,
            3.245,
            3.096,
            3.21,
            2.978,
            2.962,
            2.716,
            2.464,
            2.24,
            2.083,
            1.795,
            1.727,
            1.532,
            1.52,
            1.375,
            1.432,
            1.448,
            1.446,
            1.585,
            1.643,
            1.877,
            2.111,
            2.096,
            2.254,
            2.422,
            2.623,
            2.729,
            3.007,
            3.004,
            3.247,
            3.449,
            3.324,
            3.599,
            3.634,
            3.665,
            3.75,
            3.713,
            3.78,
            3.795,
            3.93,
            3.616,
            3.585,
            3.742,
            3.632,
            3.516,
            3.575,
            3.539,
            3.308,
            3.265,
            3.254,
            2.977,
            2.823,
            2.705,
            2.61,
            2.433,
            2.246,
            2.142,
            2.055,
            1.909,
            1.893,
            1.732,
            1.677,
            1.573,
            1.572,
            1.477,
            1.4,
            1.363,
            1.393,
            1.297,
            1.217,
            1.36,
            1.238,
            1.209,
            1.337,
            1.258,
            1.298,
            1.167,
            1.289,
            1.275,
            1.425,
            1.377,
            1.603,
            1.554,
            1.698,
            1.707,
            1.804,
            1.796,
            1.891,
            2.056,
            2.07,
            2.096,
            2.035,
            1.961,
            1.797,
            1.529,
            1.313,
            1.306,
            1.234,
            1.076,
            1.076,
            1.112,
            1.205,
            1.298,
            1.251,
            1.193,
            1.352,
            1.228,
            1.164,
            1.275,
            1.165,
            1.147,
            1.227,
            1.322,
            1.462,
            1.538,
            1.485,
            1.536,
            1.72,
            1.737,
            1.731,
            1.843,
            1.954,
            2.119,
            2.072,
            2.153,
            2.141,
            2.165,
            2.196,
            2.081,
            2.186,
            2.142,
            2.268,
            2.237,
            2.268,
            2.218,
            2.412,
            2.377,
            2.479,
            2.455,
            2.481,
            2.438,
            2.608,
            2.673,
            2.692,
            2.853,
            2.805,
            2.937,
            2.806,
            3.05,
            3.122,
            3.206,
            3.209,
            3.112,
            3.07,
            3.119,
            3.114,
            3.048,
            3.177,
            3.292,
            3.206,
            3.236,
            3.278,
            3.266,
            3.379,
            3.589,
            3.575,
            3.675,
            3.859,
            3.717,
            3.813,
            3.967,
            4.15,
            4.205,
            4.317,
            4.4,
            4.085,
            4.121,
            3.803,
            3.667,
            3.56,
            3.55,
            3.476,
            3.547,
            3.439,
            3.616,
            3.523,
            3.602,
            3.682,
            3.696,
            3.532,
            3.772,
            3.839,
            3.928,
            3.869,
            3.877,
            3.815,
            3.844,
            3.875,
            3.77,
            3.743,
            3.663,
            3.749,
            3.949,
            4.032,
            4.177,
            4.345,
            4.357,
            4.348,
            4.284,
            4.286,
            4.232,
            4.245,
            4.013,
            4.173,
            3.961,
            3.905,
            3.802,
            3.827,
            3.824,
            4.009,
            4.015,
            4.123,
            4.047,
            3.936,
            3.799,
            3.66,
            3.555,
            3.379,
            3.333,
            3.077,
            3.044,
            2.842,
            2.774,
            2.481,
            2.445,
            2.247,
            2.09,
            2.02,
            1.869,
            1.71,
            1.674,
            1.624,
            1.531,
            1.519,
            1.48,
            1.6,
            1.678,
            1.863,
            2.122,
            2.229,
            2.412,
            2.623,
            2.814,
            3.03,
            3.26,
            3.248,
            3.375,
            3.551,
            3.51,
            3.523,
            3.647,
            3.637,
            3.873,
            3.877,
            4.072,
            4.234,
            4.242,
            4.401,
            4.423,
            4.483,
            4.377,
            4.101,
            4.018,
            4.05,
            3.739,
            3.751,
            3.583,
            3.626,
            3.608,
            3.472,
            3.382,
            3.413,
            3.433,
            3.373,
            3.291,
            3.391,
            3.375,
            3.363,
            3.473,
            3.614,
            3.401,
            3.354,
            3.416,
            3.508,
            3.486,
            3.347,
            3.345,
            3.284,
            3.239,
            3.15,
            3.343,
            3.339,
            3.366,
            3.23,
            3.238,
            3.232,
            3.087,
            3.171,
            3.185,
            2.99,
            3.016,
            2.965,
            2.978,
            2.851,
            2.893,
            2.859,
            2.942,
            2.955,
            2.937,
            2.958,
            2.921,
            2.986,
            3.114,
            2.92,
            2.942,
            3.038,
            3.095,
            3.109,
            3.23,
            3.313,
            3.312,
            3.209,
            3.237,
            3.169,
            3.085,
            2.957,
            2.97,
            2.967,
            2.947,
            3.023,
            3.095,
            3.215,
            3.279,
            3.48,
            3.464,
            3.541,
            3.779,
            3.831,
            3.734,
            3.804,
            3.579,
            3.43,
            3.234,
            3.06,
            2.917,
            2.654,
            2.605,
            2.704,
            2.62,
            2.482,
            2.608,
            2.532,
            2.505,
            2.617,
            2.879,
            2.769,
            2.846,
            2.903,
            2.944,
            2.998,
            2.823,
            2.833,
            2.605,
            2.446,
            2.359,
            2.218,
            2.275,
            2.329,
            2.491,
            2.57,
            2.8,
            2.823,
            2.913,
            2.875,
            2.838,
            2.797,
            2.757,
            2.896,
            2.969,
            3.102,
            3.019,
            3.049,
            2.897,
            2.921,
            2.849,
            2.847,
            2.783,
            2.688,
            2.678,
            2.557,
            2.571,
            2.699,
            2.542,
            2.464,
            2.513,
            2.484,
            2.467,
            2.337,
            2.406,
            2.394,
            2.502,
            2.51,
            2.344,
            2.348,
            2.167,
            2.091,
            2.164,
            2.116,
            2.022,
            1.992,
            2.065,
            2.018,
            2.094,
            2.03,
            2.166,
            2.093,
            2.179,
            2.176,
            2.363,
            2.051,
            1.888,
            1.909,
            1.794,
            1.792,
            1.755,
            1.792,
            1.815,
            1.89,
            1.882,
            1.93,
            1.981,
            1.945,
            1.918,
            1.752,
            1.784,
            1.693,
            1.608,
            1.622,
            1.53,
            1.414,
            1.412,
            1.256,
            1.373,
            1.285,
            1.25,
            1.301,
            1.281,
            1.132,
            1.203,
            1.27,
            1.27,
            1.293,
            1.331,
            1.431,
            1.43,
            1.64,
            1.721,
            1.724,
            1.833,
            1.87,
            2.012,
            2.177,
            2.21,
            2.463,
            2.422,
            2.457,
            2.559,
            2.53,
            2.629,
            2.774,
            2.829,
            2.917,
            2.73,
            2.659,
            2.59,
            2.473,
            2.234,
            2.151,
            1.97,
            1.822,
            1.835,
            1.628,
            1.669,
            1.62,
            1.715,
            1.813,
            1.926,
            2.179,
            2.421,
            2.54,
            2.707,
            2.707,
            2.675,
            2.624,
            2.49,
            2.423,
            2.298,
            2.169,
            1.981,
            1.858,
            1.69,
            1.662,
            1.615,
            1.524,
            1.376,
            1.339,
            1.313,
            1.347,
            1.279,
            1.255,
            1.144,
            1.103,
            1.196,
            1.152,
            1.02,
            1.076,
            1.119,
            1.218,
            1.177,
            1.326,
            1.488,
            1.512,
            1.661,
            1.76,
            1.823,
            1.847,
            1.928,
            1.955,
            2.22,
            2.325,
            2.702,
            2.883,
            3.125,
            3.262,
            3.394,
            3.312,
            3.198,
            3.264,
            2.89,
            3.04,
            2.967,
            2.961,
            3.023,
            2.995,
            3.187,
            3.18,
            3.121,
            3.215,
            3.076,
            3.183,
            3.253,
            3.237,
            3.268,
            3.211,
            3.206,
            3.215,
            3.226,
            3.198,
            3.24,
            3.247,
            3.367,
            3.414,
            3.511,
            3.621,
            3.807,
            3.913,
            3.937,
            4.066,
            4.068,
            3.95,
            3.91,
            3.775,
            3.623,
            3.271,
            2.97,
            2.902,
            2.683,
            2.548,
            2.523,
            2.429,
            2.36,
            2.236,
            2.164,
            2.131,
            2.072,
            2.082,
            2.101,
            2.183,
            2.124,
            2.29,
            2.413,
            2.466,
            2.699,
            2.841,
            2.845,
            2.863,
            2.745,
            2.711,
            2.485,
            2.243,
            2.033,
            1.851,
            1.797,
            1.743,
            1.728,
            1.778,
            1.862,
            2.095,
            2.218,
            2.541,
            2.709,
            2.803,
            2.982,
            2.889,
            2.64,
            2.419,
            1.973,
            2.206,
            1.747,
            1.577,
            1.554,
            1.409,
            1.427,
            1.271,
            1.224,
            1.188,
            1.157,
            1.263,
            1.239,
            1.321,
            1.424,
            1.566,
            1.746,
            1.867,
            2.097,
            2.368,
            2.466,
            2.604,
            2.587,
            2.577,
            2.656,
            2.548,
            2.566,
            2.475,
            2.315,
            2.316,
            2.18,
            2.22,
            2.206,
            2.224,
            2.235,
            2.404,
            2.659,
            2.88,
            3.109,
            3.246,
            3.47,
            3.46,
            3.486,
            3.316,
            3.236,
            2.976,
            2.872,
            2.624,
            2.423,
            2.219,
            2.001,
            1.881,
            1.729,
            1.584,
            1.602,
            1.588,
            1.495,
            1.613,
            1.667,
            1.754,
            1.838,
            1.946,
            2.037,
            2.213,
            2.314,
            2.25,
            2.422,
            2.404,
            2.356,
            2.475,
            2.658,
            2.706,
            2.785,
            2.993,
            2.941,
            2.912,
            2.814,
            2.663,
            2.372,
            2.237,
            2.085,
            1.938,
            1.885,
            2.011,
            2.067,
            2.208,
            2.41,
            2.508,
            2.544,
            2.68,
            2.741,
            2.898,
            2.974,
            3.181,
            3.234,
            3.287,
            3.364,
            3.593,
            3.485,
            3.896,
            3.706,
            3.782,
            3.963,
            3.984,
            4.025,
            4.025,
            4.143,
            3.904,
            3.824,
            3.643,
            3.443,
            3.322,
            3.22,
            3.133,
            3.134,
            3.041,
            2.931,
            2.938,
            2.883,
            2.77,
            2.761,
            2.713,
            2.617,
            2.531,
            2.518,
            2.481,
            2.536,
            2.382,
            2.467,
            2.728,
            2.735,
            2.722,
            2.903,
            2.818,
            2.832,
            2.823,
            2.882,
            2.735,
            2.766,
            2.782,
            2.779,
            2.797,
            2.801,
            2.805,
            2.747,
            2.771,
            2.776,
            2.808,
            2.884,
            2.841,
            2.875,
            2.837,
            2.888,
            2.83,
            2.694,
            2.474,
            2.319,
            2.315,
            2.22,
            2.288,
            2.502,
            2.54,
            2.691,
            2.703,
            2.583,
            2.51,
            2.352,
            2.299,
            2.255,
            2.151,
            2.18,
            2.07,
            2.062,
            2.064,
            1.979,
            1.959,
            1.945,
            1.9,
            1.87,
            1.773,
            1.682,
            1.615,
            1.603,
            1.621,
            1.638,
            1.783,
            1.938,
            2.125,
            2.369,
            2.598,
            2.81,
            2.91,
            2.954,
            2.962,
            2.947,
            2.998,
            2.976,
            2.923,
            3.108,
            3.169,
            3.204,
            3.233,
            3.241,
            3.171,
            3.248,
            3.047,
            3.037,
            2.969,
            2.917,
            2.903,
            3.028,
            2.967,
            2.89,
            3.038,
            2.911,
            2.874,
            2.992,
            2.912,
            3.033,
            2.966,
            2.946,
            2.843,
            2.714,
            2.525,
            2.5,
            2.541,
            2.407,
            2.421,
            2.403,
            2.377,
            2.409,
            2.395,
            2.479,
            2.456,
            2.662,
            2.687,
            2.798,
            2.846,
            2.89,
            2.815,
            2.903,
            3.076,
            3.19,
            3.187,
            3.208,
            3.128,
            3.128,
            2.885,
            2.66,
            2.602,
            2.511,
            2.573,
            2.481,
            2.48,
            2.495,
            2.469,
            2.459,
            2.4,
            2.329,
            2.272,
            2.283,
            2.19,
            2.099,
            2.27,
            2.227,
            2.249,
            2.365,
            2.376,
            2.369,
            2.433,
            2.38,
            2.275,
            2.288,
            2.148,
            2.121,
            2.04,
            2.085,
            2.103,
            1.987,
            2.011,
            2.05,
            2.136,
            2.218,
            2.262,
            2.309,
            2.489,
            2.654,
            2.637,
            2.836,
            2.95,
            3.034,
            3.059,
            3.066,
            2.914,
            2.876,
            2.703,
            2.433,
            2.199,
            2.036,
            1.82,
            1.744,
            1.705,
            1.625,
            1.655,
            1.568,
            1.529,
            1.539,
            1.544,
            1.534,
            1.636,
            1.831,
            1.835,
            1.923,
            2.128,
            2.272,
            2.499,
            2.585,
            2.598,
            2.449,
            2.416,
            2.259,
            2.179,
            2.098,
            1.899,
            1.776,
            1.633,
            1.512,
            1.422,
            1.289,
            1.274,
            1.393,
            1.307,
            1.33,
            1.357,
            1.292,
            1.355,
            1.371,
            1.418,
            1.42,
            1.536,
            1.499,
            1.509,
            1.556,
            1.603,
            1.612,
            1.704,
            1.767,
            1.865,
            1.992,
            2.274,
            2.513,
            2.803,
            2.926,
            3.142,
            3.104,
            3.11,
            2.965,
            2.893,
            2.773,
            2.779,
            2.675,
            2.664,
            2.514,
            2.376,
            2.199,
            2.097,
            1.973,
            1.796,
            1.704,
            1.7,
            1.729,
            1.794,
            1.795,
            1.753,
            1.85,
            1.762,
            1.781,
            1.768,
            1.753,
            1.9,
            2.045,
            2.234,
            2.458,
            2.601,
            2.68,
            2.739,
            2.5,
            2.415,
            2.307,
            2.193,
            2.136,
            2.228,
            2.245,
            2.368,
            2.477,
            2.727,
            2.994,
            2.676,
            2.934,
            2.94,
            3.014,
            2.86,
            2.762,
            2.735,
            2.665,
            2.831,
            2.914,
            3.028,
            3.116,
            3.147,
            3.114,
            3.151,
            3.053,
            2.983,
            2.933,
            2.873,
            2.917,
            2.942,
            2.949,
            3.044,
            3.091,
            3.238,
            3.204,
            3.23,
            3.351,
            3.312,
            3.243,
            3.003,
            2.794,
            2.578,
            2.337,
            2.275,
            2.341,
            2.327,
            2.471,
            2.582,
            2.877,
            3.048,
            3.121,
            3.134,
            3.127,
            2.984,
            2.948,
            2.985,
            2.978,
            2.967,
            2.99,
            3.156,
            3.13,
            3.126,
            3.023,
            2.989,
            2.762,
            2.61,
            2.443,
            2.267,
            2.21,
            2.26,
            2.323,
            2.518,
            2.703,
            2.829,
            3.055,
            3.127,
            3.021,
            2.799,
            2.703,
            2.418,
            2.283,
            2.196,
            2.182,
            2.081,
            2.027,
            2.024,
            1.971,
            1.951,
            1.816,
            1.717,
            1.693,
            1.678,
            1.669,
            1.679,
            1.65,
            1.692,
            1.611,
            1.633,
            1.603,
            1.677,
            1.681,
            1.734,
            1.81,
            1.988,
            2.069,
            2.312,
            2.463,
            2.403,
            2.598,
            2.588,
            2.485,
            2.462,
            2.42,
            2.513,
            2.523,
            2.582,
            2.823,
            2.9,
            3.047,
            3.168,
            3.184,
            3.243,
            3.384,
            3.418,
            3.421,
            3.44,
            3.463,
            3.351,
            3.191,
            3.04,
            2.992,
            2.815,
            2.762,
            2.701,
            2.636,
            2.607,
            2.675,
            2.763,
            2.863,
            2.954,
            2.931,
            3.062,
            3.11,
            3.04,
            2.955,
            2.872,
            2.799,
            2.585,
            2.478,
            2.217,
            1.913,
            1.824,
            1.705,
            1.614,
            1.54,
            1.597,
            1.601,
            1.7,
            1.747,
            1.786,
            1.836,
            1.934,
            2.042,
            2.099,
            2.17,
            2.243,
            2.327,
            2.346,
            2.424,
            2.388,
            2.43,
            2.513,
            2.609,
            2.633,
            2.732,
            2.722,
            2.743,
            2.692,
            2.736,
            2.679,
            2.756,
            2.887,
            3.119,
            3.484,
            3.748,
            3.868,
            3.949,
            3.88,
            3.739,
            3.42,
            3.289,
            3.104,
            2.9,
            2.885,
            2.837,
            2.867,
            2.788,
            2.792,
            2.816,
            2.87,
            2.825,
            2.924,
            2.954,
            2.979,
            2.873,
            2.909,
            2.808,
            2.991,
            2.957,
            3.008,
            2.916,
            2.871,
            2.903,
            2.89,
            2.989,
            3.233,
            3.411,
            3.643,
            3.783,
            3.805,
            3.977,
            3.964,
            4.098,
            3.715,
            3.455,
            3.352,
            3.193,
            2.994,
            2.839,
            2.727,
            2.667,
            2.659,
            2.673,
            2.6,
            2.738,
            2.741,
            2.808,
            2.832,
            2.837,
            2.923,
            2.803,
            2.881,
            2.646,
            2.635,
            2.625,
            2.506,
            2.392,
            2.464,
            2.46,
            2.526,
            2.681,
            2.787,
            2.916,
            3.06,
            3.161,
            3.246,
            3.319,
            3.372,
            3.484,
            3.464,
            3.398,
            3.274,
            3.271,
            2.987,
            2.841,
            2.681,
            2.611,
            2.45,
            2.369,
            2.446,
            2.428,
            2.517,
            2.588,
            2.567,
            2.555,
            2.591,
            2.682,
            2.792,
            2.788,
            2.863,
            2.901,
            2.871,
            2.881,
            3.028,
            3.139,
            3.314,
            3.553,
            3.59,
            3.715,
            3.597,
            3.512,
            3.441,
            3.475,
            3.371,
            3.324,
            3.216,
            3.176,
            3.222,
            3.267,
            3.063,
            2.933,
            2.782,
            2.561,
            2.495,
            2.469,
            2.279,
            2.542,
            2.398,
            2.362,
            2.318,
            2.26,
            2.246,
            2.123,
            2.112,
            2.11,
            2.259,
            2.372,
            2.526,
            2.573,
            2.667,
            2.744,
            2.834,
            2.833,
            2.831,
            2.823,
            2.854,
            2.864,
            3.122,
            3.204,
            3.277,
            3.248,
            3.244,
            3.08,
            3.053,
            2.952,
            2.747,
            2.554,
            2.467,
            2.381,
            2.355,
            2.505,
            2.754,
            3.056,
            3.406,
            3.632,
            3.791,
            3.867,
            3.998,
            3.979,
            3.966,
            3.722,
            3.384,
            3.149,
            2.906,
            2.724,
            2.543,
            2.492,
            2.471,
            2.48,
            2.659,
            2.707,
            2.819,
            2.877,
            3.003,
            2.972,
            3.052,
            3.081,
            3.019,
            2.917,
            2.879,
            2.834,
            2.76,
            2.774,
            2.719,
            2.724,
            2.733,
            2.6,
            2.559,
            2.559,
            2.473,
            2.468,
            2.449,
            2.54,
            2.718,
            2.908,
            3.16,
            3.502,
            3.685,
            3.804,
            3.858,
            3.717,
            3.631,
            3.321,
            3.181,
            2.959,
            2.917,
            2.778,
            2.794,
            2.738,
            2.689,
            2.602,
            2.591,
            2.548,
            2.5,
            2.566,
            2.572,
            2.65,
            2.705,
            2.65,
            2.626,
            2.754,
            2.832,
            2.908,
            2.922,
            3.003,
            2.992,
            2.992,
            2.911,
            2.895,
            2.819,
            2.859,
            2.823,
            2.838,
            2.954,
            2.998,
            3.0,
            3.023,
            3.14,
            3.182,
            3.3,
            3.148,
            3.056,
            2.988,
            2.819,
            2.848,
            2.901,
            2.941,
            2.923,
            2.882,
            2.848,
            2.825,
            2.762,
            2.649,
            2.622,
            2.518,
            2.526,
            2.461,
            2.494,
            2.615,
            2.754,
            2.863,
            3.011,
            3.211,
            3.295,
            3.214,
            3.198,
            3.015,
            2.94,
            2.816,
            2.71,
            2.642,
            2.653,
            2.759,
            2.691,
            2.765,
            2.79,
            2.69,
            2.719,
            2.626,
            2.814,
            2.834,
            2.833,
            2.921,
            2.875,
            2.81,
            2.791,
            2.607,
            2.594,
            2.586,
            2.604,
            2.57,
            2.664,
            2.699,
            2.719,
            2.811,
            2.871,
            2.944,
            3.12,
            3.151,
            3.407,
            3.321,
            3.362,
            3.326,
            3.241,
            3.163,
            3.109,
            3.036,
            2.987,
            2.877,
            2.789,
            2.826,
            2.999,
            3.02,
            3.252,
            2.901,
            2.862,
            2.915,
            2.933,
            3.05,
            3.167,
            3.137,
            3.179,
            3.06,
            3.06,
            2.935,
            2.924,
            2.852,
            2.712,
            2.639,
            2.691,
            2.612,
            2.584,
            2.56,
            2.692,
            2.664,
            2.744,
            2.837,
            2.87,
            2.849,
            2.839,
            2.927,
            2.936,
            2.864,
            2.9,
            2.804,
            2.947,
            3.006,
            3.266,
            3.559,
            3.861,
            3.902,
            3.82,
            3.593,
            3.47,
            3.297,
            3.154,
            3.149,
            3.037,
            3.078,
            3.119,
            3.222,
            3.25,
            3.248,
            3.184,
            3.251,
            3.378,
            3.487,
            3.395,
            3.439,
            3.284,
            3.223,
            3.386,
            3.548,
            3.635,
            3.821,
            4.022,
            4.072,
            4.173,
            4.122,
            4.021,
            3.723,
            3.495,
            3.388,
            3.229,
            3.085,
            3.07,
            3.044,
            3.05,
            2.927,
            2.943,
            3.076,
            3.158,
            3.31,
            3.273,
            3.208,
            3.245,
            3.225,
            3.168,
            3.157,
            3.19,
            3.263,
            3.357,
            3.345,
            3.444,
            3.473,
            3.501,
            3.464,
            3.511,
            3.471,
            3.465,
            3.601,
            3.769,
            3.801,
            3.775,
            3.627,
            3.665,
            3.545,
            3.397,
            3.407,
            3.308,
            3.142,
            2.994,
            2.969,
            2.875,
            2.791,
            2.914,
            3.007,
            3.089,
            3.198,
            3.247,
            3.29,
            3.293,
            3.359,
            3.392,
            3.314,
            3.341,
            3.339,
            3.415,
            3.31,
            3.214,
            3.204,
            3.312,
            3.232,
            3.214,
            3.037,
            2.983,
            2.914,
            2.93,
            2.908,
            2.832,
            2.851,
            2.961,
            3.029,
            3.156,
            3.45,
            3.647,
            3.722,
            3.744,
            3.873,
            3.759,
            3.673,
            3.527,
            3.377,
            3.273,
            3.151,
            3.161,
            3.115,
            3.285,
            3.445,
            3.54,
            3.573,
            3.553,
            3.454,
            3.374,
            3.213,
            3.16,
            3.222,
            3.187,
            3.149,
            3.086,
            3.165,
            3.087,
            3.013,
            3.093,
            3.125,
            2.937,
            2.885,
            2.863,
            2.876,
            2.953,
            3.065,
            3.169,
            3.277,
            3.294,
            3.47,
            3.735,
            3.707,
            3.594,
            3.739,
            3.776,
            3.906,
            4.082,
            4.14,
            3.982,
            3.885,
            3.656,
            3.424,
            3.364,
            3.371,
            3.233,
            3.365,
            3.24,
            3.442,
            3.266,
            3.207,
            3.228,
            3.283,
            3.209,
            3.159,
            3.16,
            3.086,
            2.948,
            2.879,
            2.858,
            2.855,
            2.951,
            3.069,
            3.119,
            3.149,
            3.213,
            3.149,
            3.21,
            3.271,
            3.349,
            3.186,
            3.17,
            3.178,
            3.239,
            3.253,
            3.431,
            3.387,
            3.429,
            3.526,
            3.511,
            3.613,
            3.705,
            3.494,
            3.461,
            3.484,
            3.293,
            3.281,
            3.13,
            3.18,
            3.142,
            3.212,
            3.257,
            3.35,
            3.354,
            3.412,
            3.435,
            3.532,
            3.582,
            3.591,
            3.562,
            3.506,
            3.25,
            3.133,
            2.974,
            2.881,
            2.802,
            2.744,
            2.789,
            2.82,
            2.961,
            3.077,
            3.293,
            3.399,
            3.578,
            3.625,
            3.602,
            3.651,
            3.593,
            3.655,
            3.564,
            3.517,
            3.462,
            3.527,
            3.568,
            3.335,
            3.233,
            3.186,
            3.041,
            2.926,
            2.918,
            2.988,
            3.147,
            3.172,
            3.379,
            3.461,
            3.497,
            3.675,
            4.029,
            4.141,
            4.266,
            4.173,
            4.184,
            3.906,
            3.709,
            3.651,
            3.585,
            3.512,
            3.531,
            3.326,
            3.514,
            3.464,
            3.456,
            3.565,
            3.538,
            3.646,
            3.643,
            3.668,
            3.554,
            3.548,
            3.55,
            3.689,
            3.474,
            3.3,
            3.086,
            2.961,
            2.973,
            2.916,
            3.013,
            2.886,
            2.968,
            3.021,
            3.012,
            3.081,
            3.071,
            3.232,
            3.33,
            3.509,
            3.58,
            3.551,
            3.616,
            3.505,
            3.521,
            3.576,
            3.646,
            3.838,
            3.817,
            3.813,
            3.751,
            3.738,
            3.709,
            3.761,
            3.699,
            3.652,
            3.695,
            3.865,
            3.894,
            4.104,
            4.099,
            4.219,
            4.038,
            4.014,
            3.962,
            3.873,
            3.775,
            3.701,
            3.631,
            3.652,
            3.708,
            3.634,
            3.604,
            3.694,
            3.685,
            3.735,
            3.857,
            3.811,
            3.721,
            3.711,
            3.633,
            3.559,
            3.556,
            3.659,
            3.896,
            3.995,
            3.966,
            4.046,
            3.972,
            3.824,
            3.74,
            3.64,
            3.71,
            3.762,
            3.804,
            3.793,
            3.707,
            3.607,
            3.523,
            3.463,
            3.435,
            3.227,
            3.177,
            3.077,
            3.144,
            3.149,
            3.289,
            3.476,
            3.364,
            3.545,
            3.35,
            3.396,
            3.432,
            3.388,
            3.271,
            3.251,
            3.062,
            3.046,
            3.008,
            3.066,
            3.048,
            3.217,
            3.285,
            3.195,
            3.145,
            3.151,
            2.936,
            2.815,
            2.817,
            2.824,
            2.858,
            2.935,
            3.123,
            3.339,
            3.416,
            3.675,
            3.643,
            3.531,
            3.353,
            3.18,
            3.018,
            3.036,
            3.08,
            3.277,
            3.381,
            3.576,
            3.735,
            3.747,
            3.788,
            3.79,
            3.863,
            3.878,
            3.702,
            3.649,
            3.552,
            3.549,
            3.429,
            3.481,
            3.511,
            3.472,
            3.541,
            3.536,
            3.44,
            3.408,
            3.244,
            3.192,
            3.128,
            3.133,
            3.237,
            3.438,
            3.344,
            3.449,
            3.463,
            3.555,
            3.446,
            3.273,
            3.353,
            3.375,
            3.693,
            3.801,
            3.819,
            3.867,
            3.654,
            3.663,
            3.708,
            3.651,
            3.565,
            3.567,
            3.62,
            3.588,
            3.498,
            3.699,
            3.57,
            3.579,
            3.46,
            3.356,
            3.212,
            3.273,
            3.247,
            3.269,
            3.423,
            3.48,
            3.512,
            3.617,
            3.613,
            3.538,
            3.444,
            3.293,
            3.585,
            3.424,
            3.445,
            3.357,
            3.458,
            3.365,
            3.391,
            3.359,
            3.396,
            3.439,
            3.586,
            3.482,
            3.411,
            3.336,
            3.239,
            3.18,
            3.257,
            3.167,
            3.237,
            3.124,
            3.203,
            3.329,
            3.365,
            3.476,
            3.375,
            3.359,
            3.426,
            3.447,
            3.62,
            3.498,
            3.599,
            3.538,
            3.606,
            3.602,
            3.41,
            3.534,
            3.573,
            3.655,
            3.529,
            3.613,
            3.611,
            3.447,
            3.649,
            3.696,
            3.668,
            3.684,
            3.565,
            3.586,
            3.64,
            3.539,
            3.561,
            3.501,
            3.339,
            3.455,
            3.296,
            3.349,
            3.407,
            3.382,
            3.475,
            3.426,
            3.355,
            3.338,
            3.306,
            3.405,
            3.419,
            3.292,
            3.338,
            3.308,
            3.448,
            3.541,
            3.525,
            3.543,
            3.542,
            3.405,
            3.392,
            3.309,
            3.524,
            3.568,
            3.575,
            3.721,
            3.679,
            3.745,
            3.709,
            3.505,
            3.412,
            3.39,
            3.45,
            3.545,
            3.499,
            3.557,
            3.44,
            3.462,
            3.418,
            3.445,
            3.361,
            3.374,
            3.315,
            3.368,
            3.352,
            3.646,
            3.538,
            3.592,
            3.43,
            3.494,
            3.369,
            3.7,
            3.745,
            3.811,
            3.929,
            3.907,
            3.748,
            3.809,
            3.73,
            3.588,
            3.844,
            3.577,
            3.83,
            3.807,
            3.804,
            3.796,
            3.876,
            3.828,
            3.741,
            3.7,
            3.677,
            3.627,
            3.605,
            3.549,
            3.539,
            3.415,
            3.467,
            3.433,
            3.576,
            3.583,
            3.763,
            3.871,
            3.743,
            3.857,
            3.73,
            3.682,
            3.51,
            3.511,
            3.585,
            3.528,
            3.589,
            3.364,
            3.295,
            3.438,
            3.417,
            3.601,
            3.529,
            3.726,
            3.662,
            3.809,
            3.734,
            3.884,
            3.651,
            3.768,
            3.653,
            3.586,
            3.61,
            3.588,
            3.517,
            3.467,
            3.485,
            3.609,
            3.52,
            3.601,
            3.602,
            3.576,
            3.622,
            3.456,
            3.242,
            3.206,
            3.153,
            3.122,
            3.269,
            3.361,
            3.166,
            3.315,
            3.387,
            3.355,
            3.5,
            3.381,
            3.525,
            3.589,
            3.532,
            3.553,
            3.644,
            3.534,
            3.467,
            3.423,
            3.423,
            3.547,
            3.666,
            3.725,
            3.647,
            3.411,
            3.635,
            3.411,
            3.515,
            3.515,
            3.443,
            3.422
          ],
          [
            0.09231,
            0.08903,
            0.09146,
            0.0897,
            0.09029,
            0.08704,
            0.0884,
            0.08586,
            0.08641,
            0.08288,
            0.08648,
            0.08476,
            0.0828,
            0.08446,
            0.08465,
            0.07867,
            0.08133,
            0.07992,
            0.07944,
            0.07746,
            0.07981,
            0.07589,
            0.07525,
            0.07525,
            0.07865,
            0.07626,
            0.07752,
            0.07374,
            0.07781,
            0.07809,
            0.0779,
            0.07816,
            0.08449,
            0.08508,
            0.08525,
            0.08059,
            0.08335,
            0.07968,
            0.08039,
            0.07656,
            0.07751,
            0.07469,
            0.07597,
            0.07455,
            0.07439,
            0.0732,
            0.07469,
            0.07379,
            0.07336,
            0.07015,
            0.07094,
            0.06998,
            0.07001,
            0.0684,
            0.07206,
            0.06731,
            0.06994,
            0.06945,
            0.06886,
            0.07006,
            0.06045,
            0.06719,
            0.06802,
            0.0654,
            0.06861,
            0.06618,
            0.06743,
            0.06621,
            0.06774,
            0.0657,
            0.06735,
            0.06431,
            0.06716,
            0.06616,
            0.06616,
            0.06439,
            0.0665,
            0.06499,
            0.06314,
            0.06398,
            0.06619,
            0.06365,
            0.06302,
            0.06264,
            0.06577,
            0.06159,
            0.06437,
            0.06345,
            0.06434,
            0.06481,
            0.06378,
            0.06327,
            0.06615,
            0.06463,
            0.06511,
            0.0625,
            0.06606,
            0.06466,
            0.06609,
            0.06312,
            0.06459,
            0.06347,
            0.06391,
            0.06471,
            0.06547,
            0.06249,
            0.06503,
            0.06346,
            0.06567,
            0.06321,
            0.06604,
            0.06496,
            0.06805,
            0.06994,
            0.07186,
            0.0711,
            0.07688,
            0.07479,
            0.08164,
            0.08454,
            0.09334,
            0.08984,
            0.09502,
            0.09487,
            0.09977,
            0.1,
            0.09966,
            0.09664,
            0.09786,
            0.09356,
            0.0881,
            0.0862,
            0.08454,
            0.08613,
            0.08425,
            0.08058,
            0.08187,
            0.08038,
            0.08568,
            0.08082,
            0.08469,
            0.08114,
            0.08332,
            0.081,
            0.07996,
            0.07542,
            0.07628,
            0.07269,
            0.06862,
            0.06674,
            0.06863,
            0.06751,
            0.06608,
            0.06421,
            0.06479,
            0.06452,
            0.066,
            0.06508,
            0.06627,
            0.06834,
            0.0557,
            0.06438,
            0.06407,
            0.06335,
            0.06479,
            0.06127,
            0.06381,
            0.06161,
            0.06294,
            0.06078,
            0.06235,
            0.05923,
            0.0599,
            0.0585,
            0.05859,
            0.0587,
            0.0603,
            0.05891,
            0.06016,
            0.05871,
            0.05925,
            0.05815,
            0.06063,
            0.06022,
            0.062,
            0.05961,
            0.06403,
            0.0651,
            0.06788,
            0.06795,
            0.06964,
            0.06939,
            0.07035,
            0.06999,
            0.07085,
            0.06867,
            0.07455,
            0.07582,
            0.07644,
            0.07891,
            0.0832,
            0.08518,
            0.08662,
            0.08302,
            0.08677,
            0.08235,
            0.08182,
            0.07659,
            0.07582,
            0.07159,
            0.06949,
            0.06676,
            0.06735,
            0.06578,
            0.06434,
            0.06403,
            0.06459,
            0.06291,
            0.06094,
            0.06095,
            0.06256,
            0.05927,
            0.05789,
            0.05874,
            0.0601,
            0.05806,
            0.06008,
            0.05757,
            0.05878,
            0.05886,
            0.05863,
            0.05661,
            0.06008,
            0.05919,
            0.05966,
            0.05819,
            0.06002,
            0.06198,
            0.06237,
            0.06232,
            0.06299,
            0.06104,
            0.06184,
            0.05955,
            0.06079,
            0.05887,
            0.0603,
            0.05978,
            0.05856,
            0.05712,
            0.05832,
            0.05806,
            0.05829,
            0.05891,
            0.05828,
            0.05772,
            0.05919,
            0.05904,
            0.05942,
            0.06078,
            0.05022,
            0.05896,
            0.05997,
            0.05886,
            0.06122,
            0.05696,
            0.0611,
            0.05997,
            0.05927,
            0.05825,
            0.05974,
            0.05732,
            0.05835,
            0.05785,
            0.05898,
            0.05692,
            0.05871,
            0.05863,
            0.05938,
            0.05821,
            0.05901,
            0.05803,
            0.05961,
            0.05885,
            0.06096,
            0.05838,
            0.05919,
            0.05984,
            0.05987,
            0.06011,
            0.06119,
            0.06131,
            0.06375,
            0.06344,
            0.06301,
            0.06324,
            0.06441,
            0.06661,
            0.06781,
            0.06622,
            0.07083,
            0.06917,
            0.07111,
            0.07048,
            0.07445,
            0.07343,
            0.07645,
            0.07785,
            0.0793,
            0.07974,
            0.08122,
            0.08148,
            0.08529,
            0.08561,
            0.09031,
            0.08617,
            0.09383,
            0.09379,
            0.09604,
            0.09436,
            0.09991,
            0.09423,
            0.09138,
            0.09394,
            0.1019,
            0.09775,
            0.09995,
            0.09566,
            0.09549,
            0.09554,
            0.08884,
            0.08441,
            0.08415,
            0.08124,
            0.07827,
            0.07359,
            0.07417,
            0.07178,
            0.07182,
            0.0686,
            0.06821,
            0.06527,
            0.06415,
            0.06559,
            0.06478,
            0.06276,
            0.06495,
            0.06315,
            0.06508,
            0.06338,
            0.06696,
            0.06436,
            0.06444,
            0.06612,
            0.06637,
            0.06606,
            0.06622,
            0.06414,
            0.06404,
            0.0615,
            0.04846,
            0.05483,
            0.05525,
            0.05478,
            0.05408,
            0.05207,
            0.05394,
            0.0529,
            0.05306,
            0.05349,
            0.05399,
            0.05199,
            0.05327,
            0.05193,
            0.05231,
            0.0512,
            0.0529,
            0.05248,
            0.05246,
            0.05184,
            0.05265,
            0.05221,
            0.05261,
            0.05224,
            0.05453,
            0.0524,
            0.05339,
            0.05205,
            0.05263,
            0.05198,
            0.05326,
            0.05196,
            0.05331,
            0.05304,
            0.05385,
            0.05182,
            0.05475,
            0.05332,
            0.0542,
            0.05199,
            0.05507,
            0.05411,
            0.05485,
            0.05365,
            0.05461,
            0.05243,
            0.05557,
            0.05528,
            0.05543,
            0.05447,
            0.0566,
            0.05635,
            0.05731,
            0.05807,
            0.05853,
            0.05852,
            0.06085,
            0.05976,
            0.06178,
            0.06196,
            0.06525,
            0.06157,
            0.06362,
            0.06557,
            0.06947,
            0.06821,
            0.07121,
            0.0697,
            0.07139,
            0.07259,
            0.07393,
            0.07305,
            0.07635,
            0.07528,
            0.07729,
            0.07079,
            0.07035,
            0.06674,
            0.06544,
            0.06147,
            0.06038,
            0.05661,
            0.05501,
            0.05345,
            0.05362,
            0.05268,
            0.05351,
            0.05394,
            0.0547,
            0.05377,
            0.05802,
            0.05732,
            0.05985,
            0.06228,
            0.06312,
            0.06251,
            0.06881,
            0.07054,
            0.07379,
            0.0733,
            0.06572,
            0.07879,
            0.07923,
            0.08181,
            0.0852,
            0.08331,
            0.08909,
            0.08561,
            0.08557,
            0.0851,
            0.09005,
            0.0831,
            0.08417,
            0.08658,
            0.08641,
            0.081,
            0.08466,
            0.07976,
            0.07938,
            0.0763,
            0.07785,
            0.07128,
            0.0702,
            0.06768,
            0.06855,
            0.06374,
            0.06178,
            0.06027,
            0.05984,
            0.05827,
            0.0586,
            0.05609,
            0.05823,
            0.05632,
            0.05493,
            0.05255,
            0.05481,
            0.05348,
            0.05346,
            0.05185,
            0.05357,
            0.05076,
            0.05197,
            0.05142,
            0.05317,
            0.05029,
            0.05226,
            0.05251,
            0.05283,
            0.05029,
            0.05242,
            0.05234,
            0.05498,
            0.05445,
            0.05467,
            0.05411,
            0.05584,
            0.05547,
            0.0574,
            0.05743,
            0.05927,
            0.05801,
            0.05768,
            0.05565,
            0.0561,
            0.0526,
            0.05289,
            0.05003,
            0.0509,
            0.05034,
            0.05038,
            0.04827,
            0.05097,
            0.05121,
            0.05045,
            0.04942,
            0.05081,
            0.051,
            0.05173,
            0.04989,
            0.05236,
            0.05041,
            0.05085,
            0.05091,
            0.05148,
            0.05072,
            0.05418,
            0.05404,
            0.05424,
            0.05391,
            0.0574,
            0.05565,
            0.05584,
            0.05725,
            0.0598,
            0.05863,
            0.06007,
            0.05887,
            0.0587,
            0.06004,
            0.05018,
            0.05739,
            0.05813,
            0.05891,
            0.06135,
            0.05797,
            0.0605,
            0.05974,
            0.06106,
            0.06171,
            0.06339,
            0.06154,
            0.06324,
            0.06293,
            0.06509,
            0.06559,
            0.06804,
            0.06786,
            0.0673,
            0.06868,
            0.07217,
            0.07049,
            0.06952,
            0.06993,
            0.07054,
            0.06899,
            0.07077,
            0.06868,
            0.07102,
            0.07222,
            0.07178,
            0.0697,
            0.07288,
            0.07486,
            0.07488,
            0.07473,
            0.07864,
            0.08075,
            0.08409,
            0.08106,
            0.08455,
            0.08597,
            0.09158,
            0.09118,
            0.09404,
            0.09503,
            0.09119,
            0.08697,
            0.08263,
            0.07735,
            0.07857,
            0.07475,
            0.07471,
            0.07579,
            0.07563,
            0.0771,
            0.07678,
            0.07669,
            0.07847,
            0.07919,
            0.07983,
            0.08037,
            0.08,
            0.08251,
            0.08446,
            0.08331,
            0.08158,
            0.08076,
            0.08252,
            0.07816,
            0.08044,
            0.07645,
            0.08073,
            0.083,
            0.08596,
            0.08613,
            0.09401,
            0.09407,
            0.0958,
            0.09182,
            0.09258,
            0.08851,
            0.09151,
            0.08337,
            0.08804,
            0.07931,
            0.08441,
            0.08121,
            0.08259,
            0.08101,
            0.08658,
            0.08542,
            0.08951,
            0.08566,
            0.08634,
            0.07923,
            0.0783,
            0.07527,
            0.07374,
            0.07279,
            0.05746,
            0.06575,
            0.06339,
            0.06231,
            0.05949,
            0.05618,
            0.0569,
            0.0538,
            0.05331,
            0.05247,
            0.05198,
            0.04928,
            0.04969,
            0.04912,
            0.04974,
            0.0478,
            0.05041,
            0.05091,
            0.0522,
            0.05271,
            0.0564,
            0.05643,
            0.05997,
            0.06194,
            0.06656,
            0.06729,
            0.07047,
            0.07002,
            0.07312,
            0.07324,
            0.07541,
            0.07519,
            0.07663,
            0.07931,
            0.08197,
            0.08429,
            0.08945,
            0.09121,
            0.09546,
            0.0911,
            0.09594,
            0.0881,
            0.0856,
            0.08446,
            0.08477,
            0.07556,
            0.07741,
            0.07458,
            0.07452,
            0.07224,
            0.07326,
            0.0693,
            0.07164,
            0.07218,
            0.0712,
            0.06671,
            0.07037,
            0.06986,
            0.07069,
            0.07014,
            0.07605,
            0.06794,
            0.0685,
            0.07031,
            0.07295,
            0.0697,
            0.06987,
            0.06808,
            0.06899,
            0.06677,
            0.06617,
            0.06603,
            0.06783,
            0.0678,
            0.06729,
            0.06253,
            0.06569,
            0.06413,
            0.0663,
            0.06498,
            0.06305,
            0.0615,
            0.06055,
            0.06183,
            0.06174,
            0.06018,
            0.0619,
            0.06211,
            0.06239,
            0.06,
            0.06337,
            0.0606,
            0.06199,
            0.06322,
            0.06192,
            0.06147,
            0.06285,
            0.0635,
            0.06541,
            0.06664,
            0.05712,
            0.06587,
            0.06422,
            0.06601,
            0.06427,
            0.06139,
            0.06303,
            0.06071,
            0.06156,
            0.06127,
            0.06292,
            0.06267,
            0.06402,
            0.06514,
            0.06862,
            0.06804,
            0.07261,
            0.07427,
            0.07644,
            0.07461,
            0.07451,
            0.07015,
            0.06722,
            0.06363,
            0.06299,
            0.05767,
            0.05719,
            0.05595,
            0.05807,
            0.05545,
            0.05635,
            0.05493,
            0.05549,
            0.05474,
            0.05618,
            0.05572,
            0.05871,
            0.05891,
            0.06012,
            0.06063,
            0.06047,
            0.05894,
            0.05788,
            0.0562,
            0.05517,
            0.05193,
            0.05314,
            0.05186,
            0.05273,
            0.05259,
            0.05646,
            0.0567,
            0.05966,
            0.05971,
            0.05891,
            0.05642,
            0.05918,
            0.05768,
            0.06027,
            0.0595,
            0.0628,
            0.06022,
            0.05983,
            0.05798,
            0.06136,
            0.05747,
            0.05778,
            0.0557,
            0.0562,
            0.05478,
            0.05463,
            0.05373,
            0.05584,
            0.05373,
            0.05435,
            0.05154,
            0.05304,
            0.05234,
            0.05215,
            0.05153,
            0.05286,
            0.05163,
            0.05166,
            0.05044,
            0.05146,
            0.04862,
            0.04971,
            0.04931,
            0.04942,
            0.04824,
            0.04906,
            0.04827,
            0.04978,
            0.04939,
            0.04895,
            0.04803,
            0.05005,
            0.04996,
            0.05239,
            0.05177,
            0.04104,
            0.04747,
            0.0474,
            0.04644,
            0.04657,
            0.04531,
            0.04717,
            0.04538,
            0.04671,
            0.04658,
            0.04723,
            0.04564,
            0.04703,
            0.04589,
            0.0472,
            0.04569,
            0.04601,
            0.0444,
            0.04428,
            0.04362,
            0.04369,
            0.04206,
            0.04292,
            0.04194,
            0.04283,
            0.04115,
            0.04211,
            0.04114,
            0.04244,
            0.04158,
            0.04223,
            0.04121,
            0.04207,
            0.04205,
            0.04278,
            0.04227,
            0.04459,
            0.0453,
            0.04544,
            0.04457,
            0.04633,
            0.04648,
            0.04861,
            0.04948,
            0.05156,
            0.04993,
            0.05262,
            0.05329,
            0.05216,
            0.05285,
            0.05523,
            0.05412,
            0.05694,
            0.05488,
            0.05296,
            0.05125,
            0.05115,
            0.04868,
            0.04849,
            0.04534,
            0.04593,
            0.0431,
            0.04299,
            0.04284,
            0.04467,
            0.04274,
            0.04502,
            0.04499,
            0.04754,
            0.04857,
            0.05155,
            0.05119,
            0.0533,
            0.05312,
            0.05281,
            0.04944,
            0.04994,
            0.04896,
            0.04739,
            0.04548,
            0.04605,
            0.04288,
            0.04291,
            0.04211,
            0.04147,
            0.04119,
            0.04277,
            0.04126,
            0.04041,
            0.03935,
            0.04134,
            0.04047,
            0.03987,
            0.03929,
            0.03997,
            0.03927,
            0.04113,
            0.04065,
            0.04128,
            0.03996,
            0.0351,
            0.04085,
            0.04174,
            0.04223,
            0.04363,
            0.0428,
            0.0447,
            0.04454,
            0.0457,
            0.04679,
            0.05003,
            0.05116,
            0.05386,
            0.05778,
            0.05912,
            0.05953,
            0.06074,
            0.05786,
            0.05743,
            0.05462,
            0.05605,
            0.05407,
            0.05442,
            0.05445,
            0.05585,
            0.05615,
            0.05774,
            0.0569,
            0.05758,
            0.05692,
            0.05885,
            0.05831,
            0.05822,
            0.05767,
            0.05686,
            0.05647,
            0.05914,
            0.05809,
            0.0579,
            0.05788,
            0.05914,
            0.0586,
            0.06001,
            0.06115,
            0.06493,
            0.06546,
            0.06945,
            0.06934,
            0.07303,
            0.07,
            0.06862,
            0.06747,
            0.06554,
            0.0627,
            0.05812,
            0.05315,
            0.05322,
            0.04993,
            0.05027,
            0.04808,
            0.04818,
            0.04595,
            0.04529,
            0.0447,
            0.0464,
            0.04465,
            0.04449,
            0.04369,
            0.04564,
            0.04501,
            0.04636,
            0.04493,
            0.04828,
            0.04938,
            0.05217,
            0.05035,
            0.05167,
            0.05017,
            0.04971,
            0.04671,
            0.04598,
            0.0428,
            0.04212,
            0.0415,
            0.04208,
            0.04115,
            0.04224,
            0.04256,
            0.04383,
            0.04448,
            0.04896,
            0.04937,
            0.05155,
            0.05078,
            0.05208,
            0.04839,
            0.04812,
            0.04496,
            0.04352,
            0.0424,
            0.03543,
            0.03918,
            0.03874,
            0.03832,
            0.03902,
            0.03736,
            0.03825,
            0.03728,
            0.03806,
            0.03766,
            0.03952,
            0.03814,
            0.03944,
            0.04007,
            0.04321,
            0.04342,
            0.04653,
            0.04808,
            0.04756,
            0.04779,
            0.04891,
            0.04757,
            0.04726,
            0.04705,
            0.04735,
            0.04424,
            0.04541,
            0.04408,
            0.04466,
            0.04384,
            0.04514,
            0.04449,
            0.04728,
            0.04824,
            0.0519,
            0.05286,
            0.05595,
            0.05763,
            0.05985,
            0.05788,
            0.05745,
            0.05424,
            0.05234,
            0.04949,
            0.04879,
            0.04478,
            0.0444,
            0.04197,
            0.04233,
            0.03976,
            0.04017,
            0.03814,
            0.0397,
            0.0393,
            0.0405,
            0.0389,
            0.0401,
            0.0403,
            0.04141,
            0.04184,
            0.04449,
            0.04369,
            0.04343,
            0.04444,
            0.04605,
            0.04492,
            0.04649,
            0.04685,
            0.05016,
            0.0486,
            0.05072,
            0.04882,
            0.0507,
            0.04911,
            0.04774,
            0.04331,
            0.04358,
            0.04168,
            0.04157,
            0.04065,
            0.04171,
            0.04167,
            0.04338,
            0.04356,
            0.04552,
            0.04608,
            0.04909,
            0.04899,
            0.05029,
            0.05044,
            0.05469,
            0.05494,
            0.05536,
            0.05503,
            0.06004,
            0.05826,
            0.05914,
            0.06735,
            0.06558,
            0.06678,
            0.05792,
            0.06654,
            0.06732,
            0.06752,
            0.06657,
            0.06241,
            0.06122,
            0.05686,
            0.056,
            0.05365,
            0.05445,
            0.05222,
            0.05218,
            0.0508,
            0.05181,
            0.04875,
            0.04957,
            0.04888,
            0.04857,
            0.04649,
            0.04664,
            0.04596,
            0.0455,
            0.04614,
            0.04664,
            0.04542,
            0.04901,
            0.04873,
            0.04905,
            0.05025,
            0.05121,
            0.04964,
            0.05001,
            0.05064,
            0.04935,
            0.04862,
            0.05037,
            0.05056,
            0.0504,
            0.04998,
            0.05119,
            0.04917,
            0.05042,
            0.04962,
            0.05072,
            0.05017,
            0.05228,
            0.05148,
            0.05148,
            0.05074,
            0.05148,
            0.04874,
            0.04759,
            0.04608,
            0.04589,
            0.0436,
            0.04594,
            0.04712,
            0.04828,
            0.04965,
            0.05027,
            0.04706,
            0.04651,
            0.04463,
            0.04574,
            0.04486,
            0.0449,
            0.04319,
            0.04347,
            0.04241,
            0.04274,
            0.04094,
            0.04284,
            0.04187,
            0.04175,
            0.039,
            0.04022,
            0.03995,
            0.03971,
            0.03875,
            0.04006,
            0.03848,
            0.03933,
            0.04043,
            0.04244,
            0.04356,
            0.04745,
            0.04892,
            0.05101,
            0.05009,
            0.05139,
            0.04993,
            0.05131,
            0.05111,
            0.05023,
            0.04602,
            0.0602,
            0.05407,
            0.0557,
            0.05397,
            0.04479,
            0.05242,
            0.05092,
            0.05091,
            0.05055,
            0.04896,
            0.05011,
            0.05041,
            0.04999,
            0.04869,
            0.0508,
            0.04804,
            0.04955,
            0.04928,
            0.04962,
            0.04892,
            0.05036,
            0.04843,
            0.04819,
            0.04598,
            0.04512,
            0.04392,
            0.04463,
            0.04316,
            0.04439,
            0.04197,
            0.04303,
            0.04329,
            0.04309,
            0.04334,
            0.04407,
            0.04439,
            0.04651,
            0.04665,
            0.04696,
            0.04579,
            0.04795,
            0.04792,
            0.05049,
            0.04997,
            0.05199,
            0.05043,
            0.05083,
            0.04939,
            0.04742,
            0.0442,
            0.04476,
            0.04358,
            0.04422,
            0.04217,
            0.04362,
            0.0422,
            0.04314,
            0.04321,
            0.04276,
            0.04077,
            0.04187,
            0.04048,
            0.04109,
            0.03943,
            0.0409,
            0.04019,
            0.04029,
            0.04129,
            0.04271,
            0.0415,
            0.04287,
            0.04097,
            0.04196,
            0.04012,
            0.03981,
            0.03899,
            0.04006,
            0.03932,
            0.03942,
            0.03746,
            0.03872,
            0.03907,
            0.0401,
            0.04008,
            0.04105,
            0.04044,
            0.0421,
            0.04422,
            0.0456,
            0.04537,
            0.04848,
            0.04877,
            0.05063,
            0.04937,
            0.04886,
            0.04732,
            0.04621,
            0.04287,
            0.04211,
            0.03968,
            0.04021,
            0.03813,
            0.039,
            0.03818,
            0.03209,
            0.03648,
            0.03641,
            0.03631,
            0.03703,
            0.03609,
            0.0374,
            0.03728,
            0.03807,
            0.03839,
            0.04085,
            0.04016,
            0.04209,
            0.04356,
            0.04324,
            0.04099,
            0.04246,
            0.04024,
            0.03908,
            0.03809,
            0.03786,
            0.03608,
            0.03548,
            0.03401,
            0.0347,
            0.03281,
            0.0338,
            0.03311,
            0.03349,
            0.0333,
            0.03349,
            0.0329,
            0.03408,
            0.03386,
            0.03381,
            0.03285,
            0.03475,
            0.03436,
            0.03465,
            0.03397,
            0.03571,
            0.03488,
            0.03526,
            0.03517,
            0.0366,
            0.03654,
            0.03941,
            0.04132,
            0.04399,
            0.04467,
            0.04794,
            0.04596,
            0.0471,
            0.04629,
            0.04484,
            0.04261,
            0.04334,
            0.04187,
            0.04216,
            0.04049,
            0.04073,
            0.0377,
            0.03666,
            0.03609,
            0.03628,
            0.03492,
            0.03547,
            0.03383,
            0.03561,
            0.03529,
            0.03516,
            0.03424,
            0.03494,
            0.03506,
            0.03559,
            0.03397,
            0.03615,
            0.03696,
            0.03917,
            0.04025,
            0.04161,
            0.04082,
            0.04155,
            0.03964,
            0.03902,
            0.03751,
            0.0386,
            0.03825,
            0.03879,
            0.03779,
            0.03985,
            0.03972,
            0.04235,
            0.04429,
            0.04194,
            0.04372,
            0.04563,
            0.04486,
            0.04465,
            0.04294,
            0.03645,
            0.04151,
            0.04319,
            0.04452,
            0.04676,
            0.04493,
            0.0478,
            0.04655,
            0.04732,
            0.04544,
            0.04586,
            0.04367,
            0.04344,
            0.04414,
            0.04445,
            0.04342,
            0.04528,
            0.04584,
            0.04742,
            0.04687,
            0.0479,
            0.0472,
            0.04754,
            0.0471,
            0.04592,
            0.04093,
            0.04082,
            0.03843,
            0.03829,
            0.03781,
            0.03867,
            0.03874,
            0.04124,
            0.04307,
            0.045,
            0.04424,
            0.04675,
            0.04573,
            0.04464,
            0.04272,
            0.04484,
            0.04335,
            0.04386,
            0.04392,
            0.04605,
            0.04498,
            0.04616,
            0.04429,
            0.04395,
            0.04086,
            0.04075,
            0.0383,
            0.03793,
            0.03744,
            0.03799,
            0.03719,
            0.04,
            0.04069,
            0.043,
            0.04381,
            0.04614,
            0.04365,
            0.04136,
            0.04019,
            0.03929,
            0.03683,
            0.0373,
            0.0361,
            0.03637,
            0.03527,
            0.03592,
            0.03432,
            0.03516,
            0.03444,
            0.03389,
            0.032,
            0.03317,
            0.03354,
            0.03352,
            0.03306,
            0.03349,
            0.03276,
            0.0326,
            0.03266,
            0.03335,
            0.03266,
            0.03476,
            0.03476,
            0.03536,
            0.03622,
            0.03936,
            0.03897,
            0.03792,
            0.04058,
            0.04069,
            0.03833,
            0.03993,
            0.03871,
            0.04034,
            0.04057,
            0.03529,
            0.04224,
            0.04316,
            0.04424,
            0.04715,
            0.0458,
            0.04874,
            0.04852,
            0.04951,
            0.04927,
            0.05084,
            0.04912,
            0.04909,
            0.04672,
            0.04573,
            0.04386,
            0.04362,
            0.04221,
            0.04182,
            0.0407,
            0.04116,
            0.04078,
            0.04207,
            0.04291,
            0.04421,
            0.04374,
            0.04582,
            0.04531,
            0.04489,
            0.0439,
            0.04417,
            0.04214,
            0.04143,
            0.03918,
            0.03744,
            0.03455,
            0.03539,
            0.03407,
            0.03417,
            0.03342,
            0.03445,
            0.0338,
            0.03439,
            0.03447,
            0.03538,
            0.03494,
            0.0366,
            0.03661,
            0.0377,
            0.03639,
            0.03811,
            0.03743,
            0.03887,
            0.03933,
            0.03947,
            0.03849,
            0.04017,
            0.03963,
            0.0406,
            0.04067,
            0.04183,
            0.04041,
            0.03961,
            0.03993,
            0.04153,
            0.04078,
            0.04298,
            0.044,
            0.04875,
            0.0524,
            0.05498,
            0.05439,
            0.05491,
            0.05228,
            0.04838,
            0.04453,
            0.04463,
            0.04239,
            0.04263,
            0.04088,
            0.04187,
            0.04041,
            0.04067,
            0.04099,
            0.04273,
            0.04188,
            0.04275,
            0.04312,
            0.04359,
            0.04195,
            0.04371,
            0.03894,
            0.04646,
            0.04324,
            0.04376,
            0.04202,
            0.04244,
            0.04287,
            0.04338,
            0.0438,
            0.03993,
            0.04798,
            0.05087,
            0.05235,
            0.05509,
            0.05513,
            0.05664,
            0.05617,
            0.05327,
            0.04885,
            0.04825,
            0.04354,
            0.04303,
            0.04093,
            0.04118,
            0.0396,
            0.04028,
            0.03988,
            0.03948,
            0.03965,
            0.04107,
            0.04057,
            0.04097,
            0.04071,
            0.04277,
            0.03992,
            0.04139,
            0.0392,
            0.03941,
            0.03864,
            0.03827,
            0.03665,
            0.03841,
            0.03746,
            0.03825,
            0.03842,
            0.0408,
            0.04161,
            0.04389,
            0.04334,
            0.04523,
            0.04521,
            0.04677,
            0.04831,
            0.04814,
            0.04566,
            0.04539,
            0.04498,
            0.04248,
            0.03963,
            0.03961,
            0.03752,
            0.03762,
            0.03732,
            0.03765,
            0.03618,
            0.03801,
            0.03794,
            0.03861,
            0.03761,
            0.03888,
            0.03832,
            0.0395,
            0.03933,
            0.04166,
            0.04041,
            0.04127,
            0.0405,
            0.0427,
            0.04326,
            0.04506,
            0.04668,
            0.04876,
            0.05036,
            0.04902,
            0.0461,
            0.04688,
            0.04639,
            0.04606,
            0.04502,
            0.0452,
            0.04277,
            0.04385,
            0.04403,
            0.0436,
            0.04039,
            0.03983,
            0.03803,
            0.03828,
            0.0364,
            0.03582,
            0.0379,
            0.0366,
            0.03621,
            0.03613,
            0.03518,
            0.03586,
            0.03467,
            0.03518,
            0.03431,
            0.03091,
            0.03593,
            0.03708,
            0.03782,
            0.03931,
            0.03841,
            0.04098,
            0.04005,
            0.04032,
            0.03956,
            0.04113,
            0.04027,
            0.04312,
            0.04389,
            0.04494,
            0.04366,
            0.04525,
            0.04245,
            0.04251,
            0.04053,
            0.03962,
            0.0371,
            0.03641,
            0.03614,
            0.037,
            0.03654,
            0.03969,
            0.04165,
            0.04663,
            0.04812,
            0.0522,
            0.05208,
            0.0552,
            0.05478,
            0.05437,
            0.04861,
            0.04687,
            0.04354,
            0.04111,
            0.0386,
            0.03878,
            0.03714,
            0.03798,
            0.03756,
            0.03967,
            0.03937,
            0.04228,
            0.04218,
            0.04394,
            0.04177,
            0.04324,
            0.04288,
            0.04301,
            0.04187,
            0.04124,
            0.03937,
            0.03967,
            0.03872,
            0.03936,
            0.03856,
            0.03951,
            0.03775,
            0.03694,
            0.03661,
            0.037,
            0.03629,
            0.03704,
            0.03637,
            0.03913,
            0.04057,
            0.04343,
            0.04549,
            0.04923,
            0.05079,
            0.05209,
            0.04843,
            0.04856,
            0.04467,
            0.04356,
            0.04091,
            0.0413,
            0.03908,
            0.03995,
            0.03943,
            0.03914,
            0.03757,
            0.03848,
            0.03824,
            0.03785,
            0.03685,
            0.03818,
            0.03791,
            0.03885,
            0.038,
            0.03789,
            0.03825,
            0.04025,
            0.04059,
            0.04132,
            0.04123,
            0.03546,
            0.04064,
            0.03972,
            0.04011,
            0.04028,
            0.03877,
            0.04039,
            0.03901,
            0.0407,
            0.04048,
            0.04177,
            0.04055,
            0.04236,
            0.04254,
            0.04454,
            0.04222,
            0.04209,
            0.04089,
            0.03958,
            0.0392,
            0.04101,
            0.0402,
            0.04037,
            0.03928,
            0.04041,
            0.0386,
            0.03927,
            0.03761,
            0.03802,
            0.03671,
            0.03728,
            0.03605,
            0.0373,
            0.03757,
            0.03888,
            0.03833,
            0.04203,
            0.04382,
            0.04506,
            0.04311,
            0.04401,
            0.04103,
            0.04036,
            0.03926,
            0.03887,
            0.03661,
            0.03872,
            0.0387,
            0.03889,
            0.03835,
            0.03877,
            0.03807,
            0.0391,
            0.03879,
            0.03998,
            0.03861,
            0.04008,
            0.0402,
            0.04064,
            0.03859,
            0.04043,
            0.03789,
            0.03684,
            0.03741,
            0.03885,
            0.03805,
            0.03946,
            0.03882,
            0.04009,
            0.03925,
            0.04017,
            0.04033,
            0.04295,
            0.04416,
            0.04632,
            0.04388,
            0.04578,
            0.04447,
            0.04428,
            0.04352,
            0.04312,
            0.04156,
            0.04121,
            0.0393,
            0.03898,
            0.03938,
            0.04276,
            0.04102,
            0.04545,
            0.03767,
            0.04159,
            0.03965,
            0.03994,
            0.04176,
            0.04275,
            0.04185,
            0.0434,
            0.04213,
            0.04274,
            0.04124,
            0.03562,
            0.03953,
            0.03864,
            0.0379,
            0.03866,
            0.03704,
            0.03789,
            0.03656,
            0.03761,
            0.03772,
            0.04006,
            0.03898,
            0.03948,
            0.03931,
            0.03987,
            0.03969,
            0.04078,
            0.03958,
            0.03992,
            0.03917,
            0.04074,
            0.04079,
            0.04391,
            0.04731,
            0.05182,
            0.05094,
            0.05108,
            0.04815,
            0.04602,
            0.04436,
            0.04339,
            0.04219,
            0.04217,
            0.04258,
            0.04328,
            0.0422,
            0.04467,
            0.04363,
            0.04368,
            0.04349,
            0.04605,
            0.04616,
            0.04579,
            0.04524,
            0.0449,
            0.04287,
            0.04601,
            0.04698,
            0.04965,
            0.05017,
            0.05393,
            0.05381,
            0.05642,
            0.05554,
            0.05441,
            0.04932,
            0.04723,
            0.04524,
            0.04373,
            0.04187,
            0.0423,
            0.04088,
            0.04052,
            0.03963,
            0.04186,
            0.0419,
            0.04306,
            0.0431,
            0.04368,
            0.0433,
            0.04354,
            0.04192,
            0.04234,
            0.04283,
            0.04291,
            0.04226,
            0.04496,
            0.04458,
            0.04591,
            0.04582,
            0.04836,
            0.04542,
            0.04629,
            0.04572,
            0.04637,
            0.04752,
            0.05059,
            0.05605,
            0.04628,
            0.04778,
            0.04978,
            0.0463,
            0.04529,
            0.0452,
            0.04413,
            0.04199,
            0.04197,
            0.0408,
            0.03995,
            0.03912,
            0.0356,
            0.04053,
            0.04166,
            0.04298,
            0.04427,
            0.0433,
            0.04517,
            0.04411,
            0.04491,
            0.04415,
            0.04566,
            0.04355,
            0.04554,
            0.04405,
            0.04399,
            0.04304,
            0.04517,
            0.04431,
            0.04348,
            0.04161,
            0.04162,
            0.04042,
            0.04124,
            0.04045,
            0.04123,
            0.04023,
            0.04294,
            0.04304,
            0.04474,
            0.04758,
            0.0502,
            0.05,
            0.05167,
            0.05226,
            0.05078,
            0.04825,
            0.04805,
            0.0454,
            0.04467,
            0.04271,
            0.04378,
            0.04214,
            0.04464,
            0.04607,
            0.04838,
            0.0465,
            0.04827,
            0.04634,
            0.04568,
            0.04285,
            0.04369,
            0.0425,
            0.04357,
            0.04323,
            0.04306,
            0.04193,
            0.04248,
            0.0408,
            0.042,
            0.04219,
            0.04235,
            0.0396,
            0.03871,
            0.03909,
            0.04184,
            0.04189,
            0.04348,
            0.04319,
            0.04559,
            0.04607,
            0.04964,
            0.04852,
            0.04862,
            0.05038,
            0.05105,
            0.05102,
            0.05585,
            0.05642,
            0.05474,
            0.05248,
            0.05046,
            0.0461,
            0.04504,
            0.0442,
            0.04396,
            0.04449,
            0.0527,
            0.04197,
            0.04512,
            0.04315,
            0.04598,
            0.04566,
            0.04447,
            0.04282,
            0.04339,
            0.04159,
            0.04238,
            0.04085,
            0.0412,
            0.04082,
            0.03674,
            0.04237,
            0.04275,
            0.04359,
            0.04474,
            0.04276,
            0.04472,
            0.04484,
            0.04592,
            0.04365,
            0.04499,
            0.04294,
            0.0446,
            0.04535,
            0.04668,
            0.0454,
            0.04756,
            0.04754,
            0.04872,
            0.0489,
            0.05042,
            0.04726,
            0.04668,
            0.04689,
            0.04629,
            0.04441,
            0.04403,
            0.04314,
            0.04414,
            0.04431,
            0.04606,
            0.04557,
            0.04626,
            0.04702,
            0.04719,
            0.04686,
            0.04939,
            0.04929,
            0.04978,
            0.04732,
            0.04527,
            0.04257,
            0.04165,
            0.04028,
            0.04059,
            0.03839,
            0.04012,
            0.03994,
            0.04169,
            0.04179,
            0.04558,
            0.04622,
            0.04918,
            0.04988,
            0.05027,
            0.0491,
            0.04969,
            0.04982,
            0.04859,
            0.04817,
            0.0481,
            0.04756,
            0.04774,
            0.04548,
            0.04599,
            0.04397,
            0.0434,
            0.0409,
            0.04183,
            0.04175,
            0.04401,
            0.04374,
            0.04669,
            0.04747,
            0.04903,
            0.04882,
            0.05645,
            0.05797,
            0.06189,
            0.05876,
            0.0599,
            0.05281,
            0.05056,
            0.05108,
            0.04937,
            0.05441,
            0.04389,
            0.04774,
            0.04944,
            0.0477,
            0.04902,
            0.04916,
            0.05063,
            0.05077,
            0.05093,
            0.04988,
            0.05066,
            0.05025,
            0.05102,
            0.0523,
            0.04272,
            0.04549,
            0.04462,
            0.04306,
            0.04333,
            0.04119,
            0.04344,
            0.04267,
            0.04415,
            0.04351,
            0.04357,
            0.04315,
            0.04409,
            0.04601,
            0.04785,
            0.04816,
            0.0512,
            0.0503,
            0.05155,
            0.04937,
            0.05113,
            0.05012,
            0.05214,
            0.05445,
            0.05579,
            0.05384,
            0.05391,
            0.05302,
            0.05332,
            0.05301,
            0.05347,
            0.05029,
            0.05355,
            0.05571,
            0.0557,
            0.05761,
            0.06018,
            0.06144,
            0.05969,
            0.0571,
            0.05832,
            0.05476,
            0.0541,
            0.05286,
            0.05302,
            0.05192,
            0.05376,
            0.05195,
            0.0525,
            0.05186,
            0.05416,
            0.05319,
            0.05634,
            0.05464,
            0.05411,
            0.05235,
            0.05348,
            0.05106,
            0.05175,
            0.05196,
            0.05792,
            0.05774,
            0.05821,
            0.05843,
            0.05881,
            0.05502,
            0.05475,
            0.05233,
            0.0545,
            0.05431,
            0.05605,
            0.05341,
            0.0545,
            0.05317,
            0.05274,
            0.04848,
            0.04979,
            0.04763,
            0.04813,
            0.04588,
            0.04683,
            0.04576,
            0.04801,
            0.05041,
            0.05721,
            0.04502,
            0.05032,
            0.04986,
            0.05087,
            0.04919,
            0.05043,
            0.04725,
            0.04544,
            0.04591,
            0.04616,
            0.04529,
            0.04596,
            0.04758,
            0.04936,
            0.04877,
            0.04192,
            0.0464,
            0.0444,
            0.04341,
            0.04396,
            0.04246,
            0.04481,
            0.04488,
            0.04687,
            0.05014,
            0.0524,
            0.05402,
            0.05395,
            0.05256,
            0.05091,
            0.04744,
            0.04746,
            0.04646,
            0.04706,
            0.04951,
            0.052,
            0.05312,
            0.05599,
            0.05546,
            0.05798,
            0.05685,
            0.05863,
            0.05822,
            0.05714,
            0.05606,
            0.05428,
            0.05353,
            0.0533,
            0.0537,
            0.05371,
            0.05149,
            0.05499,
            0.054,
            0.05415,
            0.05243,
            0.05144,
            0.04896,
            0.04943,
            0.04874,
            0.05137,
            0.05259,
            0.05346,
            0.05429,
            0.05468,
            0.05423,
            0.05409,
            0.05015,
            0.05276,
            0.05309,
            0.05761,
            0.05691,
            0.05992,
            0.05925,
            0.05695,
            0.05623,
            0.05796,
            0.05476,
            0.05373,
            0.05321,
            0.05664,
            0.05454,
            0.05461,
            0.05565,
            0.05531,
            0.05509,
            0.05351,
            0.05044,
            0.05027,
            0.05043,
            0.05134,
            0.04955,
            0.05311,
            0.05446,
            0.05496,
            0.05568,
            0.05704,
            0.05426,
            0.05334,
            0.05745,
            0.04946,
            0.05307,
            0.05476,
            0.05307,
            0.05489,
            0.05232,
            0.05412,
            0.05232,
            0.0541,
            0.05426,
            0.05646,
            0.05406,
            0.05586,
            0.05315,
            0.0535,
            0.05165,
            0.04625,
            0.05077,
            0.05173,
            0.05036,
            0.05309,
            0.05258,
            0.05442,
            0.05531,
            0.05473,
            0.05394,
            0.0562,
            0.05438,
            0.05854,
            0.05636,
            0.0588,
            0.05633,
            0.05958,
            0.05879,
            0.05594,
            0.05786,
            0.05908,
            0.05908,
            0.05739,
            0.05841,
            0.06024,
            0.05574,
            0.06024,
            0.05956,
            0.06093,
            0.06069,
            0.05926,
            0.05815,
            0.05953,
            0.05869,
            0.05858,
            0.05577,
            0.0567,
            0.05679,
            0.05566,
            0.05396,
            0.0579,
            0.05513,
            0.05734,
            0.05625,
            0.05647,
            0.05424,
            0.05645,
            0.05681,
            0.05713,
            0.05322,
            0.0561,
            0.05486,
            0.05779,
            0.05917,
            0.05921,
            0.05719,
            0.05947,
            0.05665,
            0.05789,
            0.05501,
            0.06031,
            0.05932,
            0.05902,
            0.06128,
            0.0632,
            0.06246,
            0.06328,
            0.05825,
            0.0588,
            0.05702,
            0.0568,
            0.0578,
            0.05994,
            0.06005,
            0.05857,
            0.05719,
            0.05897,
            0.05869,
            0.05722,
            0.0563,
            0.05749,
            0.05635,
            0.06254,
            0.05575,
            0.06137,
            0.05926,
            0.05965,
            0.05966,
            0.05956,
            0.06244,
            0.06574,
            0.06535,
            0.06787,
            0.06803,
            0.06539,
            0.06526,
            0.06497,
            0.0628,
            0.06843,
            0.06342,
            0.05956,
            0.06663,
            0.06457,
            0.06477,
            0.06833,
            0.06506,
            0.06583,
            0.06396,
            0.06337,
            0.06242,
            0.06433,
            0.05993,
            0.06099,
            0.05921,
            0.0605,
            0.05828,
            0.06358,
            0.06288,
            0.06551,
            0.06773,
            0.06586,
            0.06683,
            0.06403,
            0.0636,
            0.06277,
            0.05985,
            0.06221,
            0.0603,
            0.06239,
            0.05926,
            0.05828,
            0.06014,
            0.06113,
            0.06306,
            0.06185,
            0.06183,
            0.0649,
            0.06726,
            0.06616,
            0.06673,
            0.06587,
            0.0662,
            0.06478,
            0.06347,
            0.06437,
            0.06166,
            0.06203,
            0.06087,
            0.06249,
            0.06239,
            0.06222,
            0.06308,
            0.06333,
            0.06337,
            0.0645,
            0.05931,
            0.05795,
            0.0567,
            0.0561,
            0.05537,
            0.05906,
            0.05826,
            0.05555,
            0.05736,
            0.06082,
            0.05887,
            0.06238,
            0.05882,
            0.06259,
            0.06314,
            0.06357,
            0.06166,
            0.06455,
            0.06264,
            0.06269,
            0.05868,
            0.06129,
            0.06259,
            0.06579,
            0.0659,
            0.06594,
            0.06444,
            0.05839,
            0.06002,
            0.06228,
            0.06114,
            0.06191,
            0.06124
          ]
        ]
      }
    }
  },
  "experimental_conditions": {
    "001": {
      "0": {
        "err-analys": [
          {
            "x4_code": "(ERR-S)",
            "free_txt": [
              " Statistical uncertainty.",
              " overall normalization uncertainty 2-3%."
            ]
          }
        ],
        "facility": [
          {
            "x4_code": "(LINAC)",
            "free_txt": [
              " Electron linac."
            ]
          }
        ],
        "inc-source": [
          {
            "x4_code": "(EVAP)",
            "free_txt": [
              " Cd evaporation spectrum."
            ]
          }
        ],
        "method": [
          {
            "x4_code": "(TOF)",
            "free_txt": [
              " Time-of-flight."
            ]
          }
        ],
        "status": [
          {
            "x4_code": "(APRVD)",
            "free_txt": [
              " Approved by author.",
              "Data rec'd in private comm., Schwartz, Jan 1969"
            ]
          }
        ]
      }
    },
    "002": {}
  }
}