{
  "entry": "10059",
  "last_updated": "2011-01-13",
  "number_of_revisions": "4",
  "histories": [
    {
      "x4_code": "(19710408C)",
      "free_txt": []
    },
    {
      "x4_code": "(19750131U)",
      "free_txt": [
        " Reference added"
      ]
    },
    {
      "x4_code": "(19810529A)",
      "free_txt": [
        " Converted to REACTION formalism"
      ]
    },
    {
      "x4_code": "(19990907A)",
      "free_txt": [
        " Converted to new date formalism."
      ]
    },
    {
      "x4_code": "(20101015A)",
      "free_txt": [
        " VM: BIB updates. Subentry 002 updated;",
        "            high energy data moved to subentry 003.",
        "            Subentry 004 added."
      ]
    }
  ],
  "bib_record": {
    "title": "Neutron-induced fission cross section of 237U",
    "authors": [
      {
        "name": "J.W.Mcnally"
      },
      {
        "name": "J.W.Barnes"
      },
      {
        "name": "B.J.Dropesky"
      },
      {
        "name": "P.A.Seeger"
      },
      {
        "name": "K.Wolfsberg"
      }
    ],
    "institutes": [
      {
        "x4_code": "(1USALAS)",
        "free_txt": []
      }
    ],
    "references": [
      {
        "x4_code": "(J,PR/C,9,717,197402)",
        "free_txt": [],
        "publication_year": "1974",
        "pointer": "0"
      },
      {
        "x4_code": "(R,LA-4420,91,197006)",
        "free_txt": [],
        "publication_year": "1970",
        "pointer": "0"
      }
    ]
  },
  "reactions": {
    "002": {
      "0": {
        "x4_code": "(92-U-237(N,F),,SIG)",
        "children": [
          {
            "code": [
              "92-U-237",
              [
                "N,F"
              ],
              ",,SIG"
            ],
            "type": null,
            "target": "92-U-237",
            "process": "N,F",
            "sf49": ",,SIG",
            "sf4": null,
            "sf5": null,
            "sf6": "SIG",
            "sf7": null,
            "sf8": null,
            "sf9": null
          }
        ],
        "type": null,
        "free_text": ""
      }
    },
    "003": {
      "0": {
        "x4_code": "(92-U-237(N,F),,SIG)",
        "children": [
          {
            "code": [
              "92-U-237",
              [
                "N,F"
              ],
              ",,SIG"
            ],
            "type": null,
            "target": "92-U-237",
            "process": "N,F",
            "sf49": ",,SIG",
            "sf4": null,
            "sf5": null,
            "sf6": "SIG",
            "sf7": null,
            "sf8": null,
            "sf9": null
          }
        ],
        "type": null,
        "free_text": ""
      }
    },
    "004": {
      "0": {
        "x4_code": "(92-U-237(N,F),,SIG,,AV)",
        "children": [
          {
            "code": [
              "92-U-237",
              [
                "N,F"
              ],
              ",,SIG,,AV"
            ],
            "type": null,
            "target": "92-U-237",
            "process": "N,F",
            "sf49": ",,SIG,,AV",
            "sf4": null,
            "sf5": null,
            "sf6": "SIG",
            "sf7": null,
            "sf8": "AV",
            "sf9": null
          }
        ],
        "type": null,
        "free_text": ""
      }
    }
  },
  "data_tables": {
    "001": {
      "common": null
    },
    "002": {
      "common": {
        "heads": [
          "ERR-SYS",
          "EN-NRM",
          "MONIT",
          "MONIT-ERR",
          "ERR-1",
          "ERR-2",
          "ERR-3",
          "ERR-4",
          "ERR-5",
          "ERR-6",
          "ERR-7"
        ],
        "units": [
          "PER-CENT",
          "EV",
          "B",
          "B",
          "PER-CENT",
          "PER-CENT",
          "PER-CENT",
          "PER-CENT",
          "PER-CENT",
          "PER-CENT",
          "PER-CENT"
        ],
        "data": [
          [
            5.8
          ],
          [
            0.0253
          ],
          [
            940.3
          ],
          [
            1.6
          ],
          [
            3.0
          ],
          [
            1.6
          ],
          [
            0.2
          ],
          [
            2.9
          ],
          [
            3.4
          ],
          [
            1.0
          ],
          [
            1.0
          ]
        ]
      },
      "data": {
        "heads": [
          "EN",
          "DATA",
          "ERR-T"
        ],
        "units": [
          "EV",
          "B",
          "PER-CENT"
        ],
        "data": [
          [
            42.9969,
            43.0357,
            43.0905,
            43.2359,
            43.5069,
            43.7563,
            43.8312,
            43.9808,
            44.2589,
            44.6423,
            44.9008,
            44.9475,
            44.9871,
            45.1347,
            45.3315,
            45.5295,
            45.7288,
            45.849,
            45.9091,
            45.9491,
            46.01,
            46.0908,
            46.1494,
            46.1895,
            46.2296,
            46.2698,
            46.31,
            46.3501,
            46.3903,
            46.4305,
            46.6359,
            47.0506,
            47.4709,
            47.8968,
            48.3285,
            48.7661,
            49.2096,
            49.6592,
            50.115,
            50.5771,
            51.0457,
            51.5207,
            51.8879,
            52.0415,
            52.1273,
            52.2248,
            52.3225,
            52.4205,
            52.6207,
            52.9864,
            53.4889,
            53.9986,
            54.5155,
            55.04,
            55.4449,
            55.7129,
            56.1118,
            56.6596,
            56.9857,
            57.0302,
            57.0748,
            57.1322,
            57.2087,
            57.2533,
            57.298,
            57.3562,
            57.4215,
            57.4777,
            57.5216,
            57.5664,
            57.6112,
            57.6947,
            57.9283,
            58.3517,
            58.9326,
            59.5222,
            59.873,
            59.9186,
            59.9643,
            60.0374,
            60.15,
            60.2181,
            60.2847,
            60.3305,
            60.3997,
            60.7283,
            61.3452,
            61.9715,
            62.6074,
            63.2532,
            63.9091,
            64.5751,
            65.2517,
            65.9389,
            66.4684,
            66.6675,
            66.8085,
            66.9499,
            67.1749,
            67.3769,
            67.5202,
            67.5968,
            67.6678,
            67.7424,
            67.8119,
            67.9526,
            68.256,
            68.6221,
            68.8302,
            68.9781,
            69.0603,
            69.1296,
            69.2075,
            69.2784,
            69.4246,
            69.5745,
            69.65,
            69.7276,
            69.7979,
            69.8756,
            70.0269,
            70.1434,
            70.1929,
            70.2572,
            70.3413,
            70.4097,
            70.4899,
            70.5626,
            70.6386,
            71.0687,
            71.5689,
            71.6472,
            71.734,
            71.8813,
            72.0392,
            72.1976,
            72.2849,
            72.3578,
            72.4355,
            72.5159,
            72.6759,
            72.8363,
            72.9973,
            73.0789,
            73.1403,
            73.1908,
            73.2413,
            73.3217,
            73.3929,
            73.4435,
            73.4941,
            73.5447,
            73.5953,
            73.6473,
            73.6966,
            73.7472,
            73.7979,
            73.8486,
            73.8929,
            73.9501,
            74.0008,
            74.0574,
            74.1024,
            74.1532,
            74.204,
            74.3049,
            74.3879,
            74.4584,
            74.5094,
            74.554,
            74.6113,
            74.6623,
            74.9053,
            75.1397,
            75.2242,
            75.3088,
            75.4781,
            75.6473,
            75.7369,
            75.8176,
            75.903,
            75.9939,
            76.0742,
            76.161,
            76.3331,
            76.5059,
            76.6779,
            76.7699,
            76.8518,
            76.9389,
            77.0277,
            77.2028,
            77.3785,
            77.5549,
            77.6635,
            77.9288,
            78.3756,
            78.6255,
            78.8035,
            78.8976,
            78.9846,
            79.2808,
            79.5348,
            79.7183,
            79.7735,
            79.8287,
            79.8996,
            79.9947,
            80.0845,
            80.1613,
            80.2169,
            80.2726,
            80.3631,
            80.44,
            80.496,
            80.5519,
            80.608,
            80.6641,
            80.7202,
            80.7765,
            80.8327,
            80.8891,
            80.9455,
            81.0019,
            81.0584,
            81.1131,
            81.1716,
            81.2283,
            81.2851,
            81.3419,
            81.3987,
            81.492,
            81.5916,
            81.778,
            81.8736,
            81.9707,
            82.0654,
            82.1616,
            82.259,
            82.3544,
            82.4327,
            82.4907,
            82.5479,
            82.6069,
            82.6651,
            82.7421,
            82.8401,
            82.937,
            83.0156,
            83.138,
            83.3344,
            83.5257,
            83.6245,
            83.7293,
            83.9217,
            84.0209,
            84.1269,
            84.2601,
            84.32,
            84.3801,
            84.4402,
            84.5003,
            84.5605,
            84.6208,
            84.7288,
            84.9309,
            85.1336,
            85.2882,
            85.3492,
            85.4321,
            85.5414,
            85.7463,
            85.9017,
            85.9634,
            86.0477,
            86.149,
            86.2544,
            86.3352,
            86.3974,
            86.4618,
            86.5219,
            86.5843,
            86.6468,
            86.7093,
            86.7719,
            86.8789,
            86.9836,
            87.0859,
            87.1937,
            87.299,
            87.4129,
            87.5283,
            87.5918,
            87.6554,
            87.7222,
            87.7827,
            87.8465,
            87.9103,
            87.9742,
            88.0382,
            88.1022,
            88.1663,
            88.2555,
            88.3628,
            88.4234,
            88.4879,
            88.5524,
            88.617,
            88.6817,
            88.7937,
            88.902,
            89.0061,
            89.119,
            89.2278,
            89.3466,
            89.5555,
            89.6651,
            89.7262,
            89.7921,
            89.885,
            89.9902,
            90.1057,
            90.2267,
            90.3884,
            90.455,
            90.5495,
            90.6553,
            90.7726,
            90.8845,
            90.9906,
            91.1199,
            91.3452,
            91.531,
            91.5989,
            91.6669,
            91.7985,
            92.0079,
            92.1288,
            92.2134,
            92.282,
            92.3508,
            92.4726,
            92.5877,
            92.6956,
            92.8184,
            92.9034,
            92.9728,
            93.0423,
            93.166,
            93.2513,
            93.3211,
            93.391,
            93.5157,
            93.6327,
            93.7499,
            93.812,
            93.8824,
            93.953,
            94.0236,
            94.1028,
            94.165,
            94.3526,
            94.5901,
            94.734,
            94.8055,
            94.9341,
            95.0205,
            95.0923,
            95.1642,
            95.5824,
            95.9604,
            96.0333,
            96.1063,
            96.1793,
            96.2629,
            96.3257,
            96.399,
            96.8027,
            97.2469,
            97.371,
            97.434,
            97.5086,
            97.6198,
            97.7328,
            97.8696,
            97.9578,
            98.033,
            98.1203,
            98.1836,
            98.259,
            98.3345,
            98.4101,
            98.4858,
            98.5616,
            98.6375,
            98.7682,
            99.3144,
            99.9577,
            100.309,
            100.569,
            100.812,
            100.955,
            101.093,
            101.357,
            101.587,
            101.666,
            101.746,
            101.867,
            102.0,
            102.153,
            102.594,
            102.949,
            103.074,
            103.209,
            103.355,
            103.501,
            103.763,
            103.89,
            104.009,
            104.092,
            104.174,
            104.257,
            104.339,
            104.422,
            104.599,
            104.876,
            105.336,
            105.715,
            105.974,
            106.115,
            106.265,
            106.398,
            106.54,
            106.691,
            106.848,
            107.134,
            107.398,
            107.55,
            107.71,
            107.983,
            108.121,
            108.291,
            108.583,
            108.876,
            109.145,
            109.66,
            110.035,
            110.191,
            110.36,
            110.661,
            110.935,
            111.093,
            111.238,
            111.39,
            111.548,
            111.639,
            111.73,
            111.822,
            111.914,
            112.0,
            112.097,
            112.189,
            112.282,
            112.374,
            112.466,
            112.616,
            112.77,
            112.93,
            113.47,
            114.256,
            114.681,
            114.969,
            115.1,
            115.319,
            116.25,
            117.265,
            117.561,
            117.728,
            117.891,
            118.057,
            118.224,
            118.389,
            118.589,
            118.824,
            118.925,
            119.058,
            119.26,
            119.429,
            119.563,
            119.733,
            119.937,
            120.242,
            120.413,
            120.619,
            120.927,
            121.064,
            121.167,
            121.271,
            121.444,
            121.654,
            121.965,
            122.103,
            122.208,
            122.313,
            122.417,
            122.522,
            122.628,
            122.733,
            122.838,
            123.054,
            123.368,
            123.547,
            123.763,
            124.802,
            126.625,
            128.026,
            128.525,
            128.741,
            128.86,
            128.968,
            129.081,
            129.282,
            129.62,
            129.811,
            130.046,
            130.883,
            131.857,
            132.378,
            132.773,
            133.17,
            133.568,
            133.92,
            134.111,
            134.37,
            134.774,
            135.18,
            135.587,
            135.936,
            136.151,
            136.407,
            136.769,
            136.976,
            137.172,
            137.297,
            137.422,
            137.6,
            137.797,
            138.019,
            138.174,
            138.3,
            138.439,
            138.552,
            138.679,
            138.806,
            138.932,
            139.059,
            139.338,
            139.697,
            139.924,
            140.193,
            140.623,
            140.986,
            141.217,
            141.376,
            141.506,
            141.652,
            141.768,
            141.899,
            142.089,
            142.292,
            142.528,
            142.748,
            142.968,
            143.085,
            143.218,
            143.351,
            143.692,
            144.018,
            144.152,
            144.304,
            144.421,
            144.556,
            144.69,
            144.825,
            144.961,
            145.204,
            145.49,
            145.776,
            145.912,
            146.113,
            146.342,
            146.46,
            146.598,
            146.862,
            147.872,
            148.72,
            149.191,
            149.53,
            149.672,
            149.814,
            150.138,
            150.549,
            150.671,
            150.814,
            150.958,
            151.102,
            151.246,
            151.509,
            151.679,
            151.824,
            151.992,
            152.115,
            152.26,
            152.545,
            153.034,
            153.456,
            153.579,
            153.727,
            153.875,
            154.023,
            154.171,
            154.444,
            154.692,
            155.011,
            155.512,
            156.362,
            157.028,
            157.538,
            157.977,
            158.257,
            158.922,
            159.604,
            160.126,
            160.598,
            160.839,
            161.546,
            162.243,
            162.669,
            162.83,
            162.991,
            163.318,
            163.638,
            163.8,
            164.05,
            164.322,
            164.616,
            164.949,
            165.438,
            165.603,
            165.768,
            165.968,
            166.245,
            166.606,
            166.932,
            167.1,
            167.359,
            167.639,
            167.94,
            168.287,
            168.617,
            168.767,
            168.957,
            169.127,
            169.422,
            169.907,
            170.155,
            171.259,
            172.31,
            172.766,
            172.942,
            173.118,
            173.486,
            173.827,
            173.987,
            174.182,
            174.361,
            174.539,
            174.718,
            174.88,
            175.077,
            175.257,
            175.437,
            175.617,
            175.798,
            176.083,
            177.208,
            178.313,
            178.931,
            179.551,
            180.076,
            180.404,
            180.802,
            181.433,
            182.067,
            182.704,
            183.344,
            183.833,
            184.026,
            184.22,
            184.635,
            184.998,
            185.193,
            185.506,
            185.781,
            185.977,
            186.174,
            186.597,
            187.258,
            188.391,
            189.489,
            189.938,
            190.379,
            190.583,
            190.787,
            190.992,
            191.197,
            191.529,
            191.813,
            192.019,
            192.216,
            192.432,
            192.64,
            192.847,
            193.055,
            193.263,
            193.601,
            193.95,
            194.309,
            195.264,
            196.182,
            196.894,
            197.611,
            198.331,
            198.933,
            199.296,
            199.667,
            200.026,
            200.517,
            201.127,
            201.497,
            201.994,
            202.61,
            202.989,
            203.487,
            204.114,
            204.488,
            204.997,
            205.758,
            206.165,
            206.394,
            206.624,
            206.855,
            207.086,
            207.317,
            207.546,
            207.781,
            208.013,
            208.246,
            208.479,
            208.713,
            209.101,
            209.629,
            210.278,
            210.673,
            211.07,
            211.466,
            212.004,
            212.805,
            213.226,
            213.468,
            213.71,
            213.952,
            214.195,
            214.438,
            214.682,
            215.09,
            215.499,
            215.907,
            216.153,
            216.4,
            216.647,
            216.894,
            217.142,
            217.558,
            217.974,
            218.539,
            219.377,
            220.22,
            221.068,
            221.921,
            222.778,
            223.48,
            223.917,
            224.509,
            225.381,
            226.888,
            228.03,
            228.923,
            229.822,
            230.726,
            231.635,
            232.381,
            232.829,
            233.47,
            234.395,
            235.326,
            236.263,
            237.205,
            238.153,
            238.724,
            239.01,
            239.406,
            240.756,
            243.19,
            245.662,
            248.171,
            250.72,
            252.041,
            253.08,
            254.124,
            257.268,
            262.69,
            266.055,
            266.961,
            267.526,
            269.709,
            271.758,
            272.921,
            274.091,
            275.001,
            275.626,
            276.065,
            276.421,
            276.778,
            277.409,
            278.008,
            278.847,
            280.055,
            280.748,
            281.113,
            281.639,
            282.496,
            284.625,
            286.217,
            287.474,
            288.739,
            290.012,
            291.035,
            291.633,
            292.02,
            292.407,
            292.796,
            293.184,
            293.883,
            294.748,
            295.141,
            295.581,
            295.929,
            296.324,
            296.9,
            297.832,
            300.814,
            303.222,
            304.312,
            304.809,
            305.222,
            305.636,
            306.051,
            306.466,
            307.362,
            308.76,
            310.169,
            311.587,
            313.014,
            314.452,
            315.899,
            320.282,
            327.829,
            335.645,
            341.677,
            343.759,
            345.414,
            347.081,
            348.76,
            350.089,
            350.937,
            351.703,
            352.215,
            352.729,
            353.87,
            354.793,
            355.312,
            356.094,
            358.623,
            360.859,
            362.162,
            362.697,
            363.148,
            363.771,
            364.309,
            364.849,
            366.239,
            368.058,
            369.892,
            371.739,
            373.6,
            379.261,
            385.066,
            387.028,
            388.571,
            389.25,
            389.846,
            390.997,
            393.005,
            399.12,
            405.383,
            407.115,
            408.096,
            409.033,
            409.676,
            410.32,
            411.792,
            413.962,
            417.776,
            420.577,
            422.817,
            425.075,
            426.923,
            427.983,
            429.131,
            430.365,
            431.058,
            431.753,
            432.45,
            433.148,
            433.848,
            434.937,
            436.642,
            443.82,
            451.156,
            453.645,
            454.912,
            455.665,
            456.844,
            458.686,
            461.237,
            469.04,
            479.013,
            482.442,
            485.195,
            487.972,
            490.772,
            493.597,
            496.446,
            499.32,
            502.219,
            511.102,
            520.155,
            523.238,
            526.348,
            530.259,
            538.246,
            545.604,
            548.138,
            549.541,
            550.542,
            555.234,
            556.931,
            558.635,
            560.347,
            561.77,
            562.808,
            563.803,
            565.118,
            566.931,
            568.609,
            570.086,
            571.143,
            572.968,
            575.688,
            577.549,
            580.13,
            583.762,
            587.428,
            589.577,
            590.689,
            592.108,
            594.044,
            599.577,
            605.437,
            607.3,
            610.167,
            614.085,
            617.16,
            619.081,
            622.035,
            629.115,
            638.405,
            641.652,
            642.915,
            644.182,
            645.452,
            646.726,
            648.003,
            651.11,
            655.43,
            660.891,
            668.649,
            671.665,
            673.018,
            674.374,
            676.586,
            678.868,
            682.273,
            686.907,
            691.588,
            696.317,
            701.095,
            704.747,
            706.741,
            708.201,
            710.8,
            719.468,
            730.824,
            734.705,
            736.819,
            738.373,
            739.932,
            742.493,
            746.402,
            751.706,
            757.066,
            762.484,
            767.96,
            772.177,
            774.916,
            777.195,
            778.879,
            786.194,
            796.247,
            802.092,
            808.001,
            815.508,
            826.126,
            832.304,
            837.0,
            839.543,
            841.433,
            843.299,
            845.233,
            847.143,
            851.258,
            857.72,
            862.655,
            865.915,
            870.866,
            879.277,
            905.322,
            924.793,
            926.979,
            929.172,
            931.373,
            933.583,
            935.8,
            941.365,
            947.004,
            950.775,
            954.578,
            958.411,
            964.189,
            970.025,
            973.939,
            979.869,
            987.852,
            993.896,
            996.331,
            998.776
          ],
          [
            0.70168,
            -1.6,
            -10.84,
            -0.79871,
            -8.2934,
            25.128,
            -9.7056,
            -13.089,
            -5.9922,
            -0.035617,
            16.341,
            26.033,
            5.7315,
            -1.9868,
            -2.2266,
            28.352,
            18.009,
            31.098,
            59.293,
            93.83,
            126.1,
            147.92,
            209.01,
            270.69,
            252.61,
            153.01,
            86.159,
            63.342,
            59.173,
            34.74,
            -2.5611,
            -2.9444,
            -4.2433,
            -7.0616,
            -5.6677,
            -5.2002,
            -4.4045,
            3.2329,
            0.18739,
            0.327,
            1.9017,
            1.387,
            -0.051021,
            3.104,
            -0.46183,
            5.7628,
            15.413,
            2.0698,
            0.55363,
            0.046221,
            0.51798,
            -0.3084,
            -0.8646,
            -0.53367,
            3.0557,
            -0.0829,
            -0.94021,
            0.11887,
            3.4232,
            10.512,
            10.973,
            9.5855,
            8.2034,
            3.5824,
            5.579,
            5.2291,
            7.2418,
            4.6744,
            1.05,
            4.894,
            1.6039,
            -0.11228,
            -0.78852,
            -0.016784,
            -0.26883,
            -0.54995,
            1.2877,
            5.0384,
            4.6368,
            1.3379,
            0.38365,
            0.44969,
            6.4509,
            6.2573,
            0.66157,
            1.0312,
            0.3995,
            0.34601,
            0.68931,
            0.31559,
            0.11915,
            -0.043617,
            0.37788,
            0.43291,
            1.0566,
            1.8914,
            2.2259,
            3.0357,
            2.8369,
            4.2198,
            3.642,
            5.3809,
            4.0875,
            3.7249,
            2.3991,
            1.1101,
            1.0002,
            0.49869,
            0.62481,
            0.97728,
            1.2448,
            2.4251,
            2.4855,
            1.0947,
            0.64757,
            1.2521,
            2.8614,
            3.6798,
            5.31,
            3.7632,
            3.3452,
            3.6865,
            5.4729,
            6.2677,
            3.4134,
            2.5786,
            1.2302,
            0.68722,
            1.7233,
            0.64982,
            2.0861,
            2.6176,
            0.91912,
            2.1874,
            2.0282,
            0.85241,
            1.1927,
            2.5011,
            1.7612,
            1.0287,
            1.1194,
            2.5654,
            3.4815,
            3.427,
            6.0497,
            12.824,
            18.702,
            23.731,
            26.509,
            50.951,
            91.57,
            117.1,
            138.47,
            147.87,
            140.66,
            124.44,
            106.85,
            84.706,
            62.096,
            45.494,
            37.066,
            23.793,
            14.442,
            9.4065,
            5.4452,
            2.7378,
            2.6034,
            2.5508,
            3.493,
            4.1991,
            3.3741,
            1.9194,
            0.83925,
            1.3773,
            1.7495,
            1.2911,
            0.79197,
            0.62702,
            1.4469,
            0.83037,
            0.49922,
            0.62458,
            1.298,
            0.74544,
            0.50114,
            0.48886,
            1.2293,
            1.19,
            2.1482,
            1.1948,
            0.86374,
            0.88497,
            1.223,
            0.89627,
            1.4619,
            0.76293,
            0.79147,
            0.70456,
            0.84008,
            1.4878,
            1.312,
            0.99762,
            1.017,
            2.1807,
            2.386,
            4.0398,
            1.9673,
            1.5833,
            1.9074,
            1.2225,
            2.4233,
            1.9331,
            3.7026,
            5.215,
            9.9934,
            11.153,
            15.99,
            21.281,
            38.296,
            37.701,
            45.518,
            45.516,
            40.756,
            40.962,
            37.877,
            32.805,
            21.321,
            15.272,
            10.441,
            7.8984,
            5.4786,
            3.626,
            1.8618,
            1.5557,
            1.1624,
            2.3444,
            2.3352,
            1.8097,
            3.892,
            3.5766,
            5.4684,
            7.556,
            8.26,
            6.6768,
            4.2626,
            2.9378,
            1.9118,
            1.0706,
            1.9982,
            0.99769,
            0.94853,
            1.3473,
            0.80281,
            0.69428,
            0.61779,
            1.1083,
            0.713,
            1.1503,
            0.7863,
            1.1272,
            0.65866,
            1.1945,
            0.74662,
            1.1264,
            0.81318,
            0.72592,
            0.67429,
            1.0392,
            1.9398,
            1.0217,
            0.93085,
            1.1749,
            0.8462,
            1.4014,
            1.0569,
            1.3696,
            0.99206,
            1.3024,
            0.86521,
            1.2493,
            1.5079,
            2.4057,
            2.1115,
            2.9441,
            4.1597,
            3.8508,
            5.5338,
            6.2418,
            4.3434,
            3.8671,
            3.3159,
            2.5176,
            3.8091,
            3.0846,
            3.8201,
            3.9412,
            6.1638,
            8.7694,
            26.643,
            30.487,
            39.248,
            46.511,
            49.616,
            43.663,
            36.882,
            21.639,
            14.254,
            7.6028,
            5.7691,
            5.0409,
            2.972,
            2.1253,
            1.7604,
            1.1772,
            1.7076,
            2.156,
            1.5304,
            1.463,
            0.79767,
            0.73586,
            0.99885,
            0.71218,
            1.0821,
            1.1945,
            0.75311,
            0.86831,
            1.3931,
            1.3226,
            1.1368,
            1.5614,
            0.9135,
            1.0353,
            0.63813,
            1.0793,
            0.78598,
            1.217,
            0.99649,
            1.7324,
            3.2414,
            4.3498,
            4.727,
            3.8216,
            3.1564,
            2.9921,
            2.0408,
            2.9153,
            2.4668,
            2.6646,
            4.0193,
            5.2683,
            6.6096,
            7.8518,
            8.9984,
            10.319,
            7.9715,
            6.4177,
            4.8574,
            4.0342,
            2.6799,
            1.4432,
            0.94046,
            1.1082,
            1.4046,
            2.1091,
            1.6626,
            1.4423,
            1.6317,
            1.1894,
            1.4815,
            1.5023,
            1.6378,
            1.0848,
            1.3662,
            1.0034,
            1.2387,
            1.2385,
            0.78756,
            0.77835,
            0.96542,
            2.3516,
            2.3291,
            3.236,
            4.226,
            5.0115,
            5.5602,
            6.5557,
            5.2747,
            3.2644,
            2.8456,
            1.8897,
            2.0206,
            0.99798,
            1.0022,
            1.4339,
            0.84795,
            0.65909,
            0.59468,
            0.58159,
            0.58602,
            0.53597,
            0.87965,
            0.8188,
            0.60171,
            0.52402,
            0.52464,
            0.82854,
            0.51575,
            0.51431,
            0.73929,
            0.48744,
            0.53474,
            0.78003,
            0.56782,
            0.71696,
            0.82692,
            0.71422,
            0.81319,
            1.2437,
            1.3458,
            1.7365,
            0.88606,
            1.1107,
            0.75251,
            0.85547,
            0.5068,
            0.50295,
            0.55889,
            0.58542,
            0.78531,
            0.54214,
            0.85438,
            0.55423,
            0.56605,
            0.76366,
            0.57719,
            0.54802,
            0.83591,
            0.79277,
            0.57151,
            0.81739,
            0.53058,
            0.51444,
            0.57191,
            0.56992,
            0.83688,
            0.64264,
            0.94622,
            0.71561,
            0.71783,
            0.74985,
            1.409,
            1.0477,
            1.4829,
            1.5441,
            2.4977,
            2.7313,
            3.2915,
            3.5901,
            4.6428,
            4.6222,
            5.1012,
            3.8774,
            3.2887,
            2.5608,
            2.5775,
            1.9465,
            1.3493,
            0.84995,
            0.69057,
            0.65513,
            0.72279,
            0.80604,
            1.062,
            0.70415,
            0.67155,
            0.67026,
            0.90577,
            0.71328,
            1.0423,
            0.82356,
            1.8821,
            1.9653,
            2.0283,
            1.8125,
            2.4748,
            2.721,
            2.3903,
            2.6049,
            3.2179,
            2.8201,
            2.6055,
            2.6601,
            2.246,
            1.5854,
            0.87862,
            1.0955,
            0.76705,
            1.0713,
            0.84171,
            0.88073,
            0.88474,
            0.6565,
            0.89523,
            0.58037,
            0.82,
            0.55839,
            0.53168,
            0.7871,
            0.63472,
            0.67478,
            0.99286,
            0.86241,
            0.82352,
            0.87516,
            0.98919,
            1.1969,
            1.3706,
            1.8294,
            1.7911,
            2.0768,
            2.9232,
            3.061,
            2.6683,
            1.7352,
            1.6134,
            1.6239,
            1.8757,
            1.6767,
            1.3892,
            1.2219,
            1.2855,
            1.3821,
            1.7118,
            1.2944,
            1.069,
            1.0602,
            1.0284,
            1.2361,
            1.2262,
            1.123,
            1.219,
            1.6031,
            1.4313,
            1.3628,
            1.0061,
            1.1335,
            1.6979,
            2.8581,
            3.8646,
            4.7591,
            5.5453,
            5.7314,
            4.8289,
            3.7009,
            2.7634,
            2.1591,
            2.2221,
            2.2135,
            1.6249,
            1.0112,
            0.87034,
            1.1189,
            1.0633,
            0.89897,
            1.3121,
            1.34,
            1.527,
            1.9885,
            2.4215,
            3.3479,
            4.3381,
            4.0901,
            2.9472,
            2.3239,
            1.648,
            1.4659,
            0.95378,
            0.90399,
            1.2106,
            0.99817,
            1.1438,
            1.6604,
            1.532,
            2.0466,
            1.8455,
            2.3561,
            2.7264,
            2.484,
            1.8623,
            1.518,
            1.5023,
            1.3746,
            0.83683,
            0.77924,
            0.82712,
            0.98744,
            1.3347,
            1.7503,
            2.2441,
            2.1163,
            2.2832,
            1.5214,
            1.5851,
            1.1907,
            1.3218,
            1.0101,
            1.3529,
            1.1815,
            1.6028,
            1.2375,
            1.459,
            1.586,
            2.0957,
            2.0227,
            2.7881,
            2.2347,
            2.1067,
            1.6231,
            1.702,
            1.2131,
            1.4954,
            1.5033,
            1.1323,
            0.91143,
            0.66334,
            0.66835,
            0.68063,
            0.70793,
            0.6695,
            0.91778,
            0.90598,
            1.1675,
            1.592,
            1.31,
            0.97565,
            0.85657,
            0.86222,
            1.2826,
            1.0324,
            1.2172,
            1.0614,
            1.2674,
            1.0658,
            0.90045,
            0.69493,
            0.91918,
            0.67517,
            0.68574,
            1.0718,
            0.75804,
            1.0269,
            0.71099,
            1.0414,
            1.6256,
            1.3158,
            1.7986,
            1.9567,
            2.1281,
            1.8955,
            2.2105,
            1.8686,
            1.5509,
            1.055,
            0.84012,
            0.8195,
            1.1977,
            0.76634,
            1.075,
            1.4089,
            1.0498,
            1.233,
            1.5891,
            2.456,
            2.8398,
            3.0902,
            5.6575,
            6.4776,
            7.822,
            8.3856,
            6.4255,
            4.9226,
            4.7259,
            3.032,
            1.3587,
            1.1594,
            0.65189,
            1.198,
            0.7527,
            0.90918,
            1.0395,
            0.68131,
            0.6198,
            0.6552,
            0.90246,
            1.3148,
            1.9825,
            1.5008,
            2.2065,
            2.0525,
            2.3637,
            1.5895,
            1.3498,
            0.74991,
            0.69623,
            1.2358,
            1.1043,
            1.0061,
            0.73934,
            0.81061,
            1.4795,
            1.8543,
            2.215,
            3.0429,
            6.0022,
            6.6642,
            8.5504,
            10.6,
            12.57,
            13.83,
            14.606,
            13.506,
            7.7255,
            6.2328,
            2.9592,
            1.6577,
            1.4945,
            1.5249,
            1.0359,
            0.78924,
            0.62038,
            0.46047,
            0.41228,
            0.50174,
            0.55523,
            0.86046,
            1.4581,
            1.5204,
            1.7235,
            0.99866,
            0.61294,
            0.52843,
            0.469,
            0.71083,
            0.7632,
            1.2123,
            1.8074,
            2.8188,
            3.2621,
            5.6834,
            9.7617,
            13.907,
            17.904,
            19.911,
            22.595,
            19.144,
            12.862,
            9.4923,
            7.0241,
            4.0992,
            2.0702,
            0.79003,
            0.62094,
            0.60066,
            0.94749,
            1.1504,
            1.8857,
            2.3947,
            1.5715,
            2.0219,
            1.8351,
            1.6034,
            1.0761,
            1.334,
            1.9343,
            2.0902,
            2.2918,
            3.2169,
            6.1951,
            9.6488,
            10.938,
            9.0954,
            4.486,
            1.3357,
            1.0934,
            0.63259,
            0.57902,
            0.6816,
            0.89352,
            0.98388,
            1.3207,
            1.3751,
            2.0002,
            2.634,
            1.9166,
            1.3396,
            1.4377,
            1.4433,
            1.7352,
            2.509,
            2.6807,
            2.5515,
            3.0928,
            2.2071,
            1.7487,
            1.8562,
            2.5074,
            1.682,
            1.7297,
            1.6861,
            2.291,
            3.0597,
            3.0147,
            1.8063,
            1.2883,
            1.6157,
            1.1663,
            1.1329,
            1.6002,
            1.3898,
            1.0491,
            1.1554,
            0.96378,
            1.5253,
            1.849,
            1.1887,
            1.1655,
            1.0787,
            1.8437,
            1.2861,
            2.4531,
            3.2023,
            6.1115,
            7.7495,
            7.1642,
            5.5991,
            4.5048,
            2.1346,
            2.4887,
            2.5195,
            1.6653,
            1.349,
            1.7304,
            1.4432,
            1.1337,
            0.86369,
            0.86856,
            1.3259,
            2.0608,
            2.7862,
            3.8976,
            6.4868,
            8.1113,
            9.7225,
            12.554,
            9.7633,
            7.5619,
            6.4892,
            4.4812,
            2.607,
            1.3227,
            0.97291,
            1.3009,
            1.4806,
            2.6006,
            3.1705,
            4.8757,
            6.3371,
            6.46,
            4.4796,
            1.7119,
            1.0783,
            0.99167,
            0.83076,
            1.4905,
            0.7429,
            0.77123,
            0.89515,
            1.2497,
            1.3232,
            1.1225,
            1.4711,
            1.9604,
            1.2488,
            1.3435,
            3.1575,
            4.5917,
            4.1119,
            2.9699,
            2.5504,
            3.5106,
            2.6387,
            3.0335,
            1.6909,
            1.8792,
            2.0979,
            2.0874,
            3.0876,
            4.0803,
            4.3522,
            3.025,
            2.7261,
            0.89853,
            1.4041,
            1.9566,
            0.83715,
            0.98116,
            1.0153,
            0.94649,
            1.1249,
            1.8496,
            1.9315,
            0.78001,
            0.85145,
            0.9498,
            0.96983,
            1.3201,
            2.6174,
            4.0437,
            4.7632,
            3.4216,
            1.923,
            1.6478,
            0.79329,
            0.86077,
            0.61597,
            1.234,
            1.9659,
            2.4571,
            0.8689,
            0.58276,
            2.7601,
            4.1643,
            7.1407,
            8.4219,
            4.9367,
            1.6053,
            1.0745,
            1.4228,
            0.71778,
            0.71449,
            1.7696,
            3.4582,
            3.4508,
            1.6478,
            0.97368,
            0.74753,
            0.70367,
            0.74046,
            0.75403,
            1.5612,
            2.8165,
            1.1652,
            0.49449,
            0.64272,
            2.2386,
            1.0391,
            0.99218,
            1.5364,
            2.0807,
            1.2233,
            1.3987,
            1.1214,
            2.1805,
            1.4876,
            1.3029,
            2.3248,
            8.2541,
            14.101,
            11.49,
            3.6976,
            4.2344,
            4.3106,
            6.0775,
            8.6841,
            10.921,
            13.136,
            4.8794,
            2.2394,
            2.1404,
            2.7004,
            3.8998,
            4.3046,
            3.3665,
            3.0665,
            2.5981,
            4.145,
            4.1552,
            5.1866,
            3.3842,
            3.2164,
            2.4495,
            3.1583,
            4.7815,
            3.327,
            1.6042,
            1.4359,
            1.3183,
            2.6029,
            2.1751,
            2.3329,
            4.6733,
            4.5973,
            2.6974,
            1.5368,
            2.1938,
            1.2602,
            1.0667,
            2.1488,
            1.8086,
            3.2956,
            5.5362,
            5.619,
            2.2684,
            1.3652,
            1.3417,
            1.3435,
            1.6223,
            2.3666,
            2.505,
            2.836,
            1.5128,
            1.0496,
            1.2027,
            1.339,
            2.115,
            1.9555,
            3.2672,
            3.4642,
            1.8656,
            0.67006,
            0.91098,
            0.78368,
            1.5222,
            3.4039,
            6.5163,
            10.064,
            7.0152,
            2.6655,
            1.0719,
            2.6153,
            1.2441,
            2.0047,
            1.3378,
            2.5336,
            1.7391,
            1.2496,
            3.7177,
            5.3799,
            8.4619,
            10.89,
            5.8365,
            2.147,
            1.3181,
            3.081,
            1.8391,
            1.7942,
            1.6791,
            1.3176,
            4.6761,
            10.066,
            13.83,
            13.666,
            8.9494,
            5.2134,
            2.7639,
            4.3585,
            7.9389,
            5.2182,
            2.4256,
            2.5295,
            3.4542,
            1.9602,
            1.463,
            2.5607,
            2.6757,
            2.9674,
            3.2459
          ],
          [
            8272.31,
            2686.69,
            345.46,
            3658.64,
            245.96,
            165.63,
            383.25,
            187.09,
            329.69,
            54284.54,
            218.65,
            176.9,
            673.14,
            1194.9,
            1092.54,
            95.68,
            123.2,
            121.7,
            68.54,
            51.59,
            37.67,
            31.59,
            25.75,
            21.39,
            23.48,
            33.73,
            42.64,
            60.7,
            71.74,
            104.62,
            470.54,
            425.33,
            254.79,
            134.0,
            153.6,
            153.61,
            186.73,
            260.51,
            4380.12,
            2223.49,
            405.6,
            482.51,
            15721.66,
            519.67,
            2467.32,
            197.53,
            85.57,
            584.47,
            1491.45,
            11033.96,
            980.53,
            1458.28,
            445.22,
            700.83,
            174.84,
            5553.49,
            323.46,
            2483.45,
            271.75,
            99.4,
            99.65,
            72.34,
            125.73,
            254.12,
            178.85,
            118.34,
            124.27,
            174.2,
            727.87,
            198.41,
            438.01,
            4281.76,
            388.14,
            13909.59,
            845.82,
            374.97,
            478.17,
            169.16,
            164.12,
            358.84,
            1036.69,
            1075.2,
            111.71,
            142.28,
            757.11,
            182.85,
            472.74,
            506.8,
            263.26,
            459.82,
            1119.68,
            2883.63,
            315.85,
            278.46,
            162.11,
            143.6,
            110.69,
            83.11,
            62.98,
            69.53,
            78.95,
            83.92,
            100.15,
            113.77,
            155.89,
            197.18,
            142.45,
            275.05,
            321.65,
            201.05,
            227.94,
            115.26,
            126.19,
            253.8,
            252.45,
            160.01,
            112.78,
            74.44,
            70.1,
            58.46,
            64.6,
            79.26,
            62.94,
            52.38,
            79.56,
            99.86,
            200.38,
            285.2,
            151.11,
            124.46,
            98.26,
            85.19,
            199.93,
            82.74,
            88.6,
            181.92,
            164.8,
            93.02,
            113.95,
            133.79,
            123.04,
            73.15,
            51.38,
            64.5,
            49.23,
            33.52,
            29.9,
            21.51,
            18.53,
            26.34,
            14.53,
            18.13,
            10.4,
            9.34,
            10.45,
            12.65,
            11.42,
            11.81,
            12.53,
            13.84,
            14.65,
            16.72,
            25.25,
            33.73,
            47.45,
            50.86,
            74.99,
            74.17,
            61.1,
            48.43,
            61.08,
            90.96,
            112.89,
            119.02,
            119.77,
            111.26,
            147.1,
            282.26,
            119.61,
            224.37,
            328.95,
            285.32,
            120.99,
            180.4,
            237.29,
            227.22,
            123.78,
            122.73,
            79.09,
            122.53,
            138.56,
            149.16,
            112.91,
            131.07,
            105.89,
            107.07,
            103.75,
            156.87,
            185.96,
            108.18,
            104.27,
            77.74,
            120.47,
            81.53,
            74.25,
            47.05,
            81.5,
            82.42,
            74.58,
            118.58,
            71.52,
            87.39,
            47.95,
            48.44,
            30.72,
            41.45,
            27.7,
            26.41,
            17.75,
            19.38,
            11.83,
            11.39,
            13.82,
            15.04,
            12.51,
            13.29,
            22.35,
            23.34,
            26.94,
            31.08,
            38.58,
            46.74,
            60.61,
            82.47,
            101.67,
            66.31,
            68.99,
            61.47,
            49.59,
            47.66,
            40.14,
            31.38,
            27.26,
            28.62,
            43.73,
            52.7,
            69.68,
            126.68,
            73.45,
            96.11,
            101.55,
            97.22,
            127.57,
            121.99,
            176.77,
            110.23,
            120.16,
            109.24,
            160.78,
            108.99,
            176.17,
            106.41,
            165.1,
            109.49,
            111.37,
            102.28,
            119.27,
            120.33,
            86.88,
            119.96,
            94.02,
            87.14,
            139.89,
            90.38,
            92.98,
            92.66,
            123.89,
            95.86,
            132.15,
            82.68,
            95.26,
            61.34,
            57.74,
            57.66,
            52.71,
            40.29,
            30.68,
            34.82,
            39.16,
            43.08,
            33.91,
            61.74,
            46.91,
            50.88,
            36.7,
            47.4,
            41.84,
            60.31,
            75.98,
            56.65,
            27.41,
            13.04,
            11.57,
            12.18,
            15.69,
            16.94,
            59.78,
            32.25,
            32.19,
            31.41,
            43.57,
            64.61,
            68.34,
            76.11,
            51.96,
            63.18,
            75.05,
            90.68,
            140.23,
            126.75,
            119.22,
            118.7,
            69.0,
            104.06,
            141.22,
            106.66,
            88.8,
            71.79,
            79.81,
            86.74,
            75.32,
            67.47,
            158.81,
            132.99,
            128.95,
            59.84,
            121.09,
            60.97,
            47.96,
            46.01,
            42.17,
            37.04,
            38.77,
            58.31,
            52.75,
            57.88,
            63.53,
            57.02,
            40.28,
            39.45,
            34.33,
            33.44,
            19.78,
            19.62,
            21.5,
            35.88,
            37.42,
            44.48,
            55.2,
            55.55,
            123.16,
            59.87,
            46.56,
            70.43,
            76.65,
            65.22,
            82.43,
            95.77,
            87.5,
            36.31,
            79.22,
            106.2,
            89.17,
            104.34,
            76.42,
            94.34,
            121.26,
            56.25,
            79.36,
            42.69,
            46.79,
            49.5,
            30.81,
            38.41,
            25.98,
            32.03,
            28.28,
            37.53,
            50.43,
            57.78,
            62.77,
            96.93,
            93.23,
            78.5,
            110.99,
            88.85,
            68.2,
            66.92,
            95.73,
            98.09,
            90.42,
            105.06,
            93.65,
            110.35,
            146.59,
            120.13,
            148.48,
            117.6,
            100.41,
            108.33,
            61.6,
            104.57,
            134.26,
            89.4,
            98.19,
            79.86,
            108.96,
            61.42,
            66.05,
            57.85,
            91.38,
            76.14,
            112.93,
            93.1,
            104.31,
            100.89,
            62.68,
            88.7,
            90.67,
            131.53,
            103.54,
            119.35,
            114.26,
            94.95,
            94.55,
            94.59,
            76.35,
            91.78,
            89.28,
            85.94,
            125.19,
            92.99,
            91.52,
            95.9,
            85.56,
            55.16,
            78.06,
            104.24,
            67.34,
            69.59,
            59.23,
            61.69,
            53.35,
            50.54,
            39.76,
            35.98,
            32.95,
            31.05,
            28.62,
            23.52,
            25.64,
            35.88,
            31.12,
            34.96,
            42.48,
            42.67,
            51.33,
            87.85,
            53.4,
            52.7,
            68.49,
            73.92,
            63.03,
            74.32,
            37.27,
            72.69,
            77.19,
            76.44,
            63.52,
            79.19,
            48.39,
            41.33,
            34.68,
            40.06,
            38.8,
            31.56,
            24.14,
            34.07,
            25.47,
            33.44,
            28.44,
            33.86,
            36.89,
            32.4,
            73.11,
            60.95,
            92.55,
            68.64,
            78.91,
            53.34,
            77.13,
            102.32,
            70.28,
            111.65,
            83.59,
            90.13,
            120.59,
            85.57,
            105.33,
            70.33,
            69.93,
            67.62,
            65.65,
            32.51,
            29.02,
            33.64,
            42.91,
            47.04,
            43.26,
            49.58,
            33.78,
            24.27,
            38.29,
            42.87,
            41.86,
            27.86,
            27.19,
            44.58,
            50.51,
            49.67,
            52.22,
            64.6,
            48.36,
            47.62,
            54.45,
            50.72,
            56.09,
            60.32,
            52.32,
            52.0,
            66.41,
            54.39,
            65.67,
            57.91,
            78.88,
            67.01,
            54.17,
            32.16,
            30.75,
            25.91,
            21.33,
            22.32,
            27.23,
            31.51,
            38.25,
            46.74,
            33.58,
            44.2,
            43.85,
            55.06,
            58.89,
            68.19,
            57.28,
            83.44,
            70.04,
            46.9,
            47.96,
            43.49,
            34.6,
            36.9,
            27.81,
            26.36,
            32.96,
            41.61,
            58.65,
            58.64,
            54.75,
            83.91,
            65.71,
            59.53,
            75.16,
            53.8,
            60.24,
            47.72,
            55.45,
            38.97,
            24.99,
            42.89,
            57.32,
            53.29,
            45.19,
            74.97,
            88.5,
            63.38,
            43.21,
            55.42,
            45.25,
            55.99,
            56.74,
            50.89,
            33.64,
            54.18,
            71.27,
            71.86,
            67.18,
            84.63,
            66.29,
            66.9,
            71.67,
            69.2,
            48.61,
            64.04,
            50.77,
            29.75,
            26.49,
            38.06,
            50.45,
            59.91,
            71.28,
            72.58,
            64.88,
            47.83,
            71.24,
            58.18,
            79.35,
            49.24,
            78.29,
            75.34,
            82.78,
            94.42,
            39.42,
            47.05,
            38.67,
            72.1,
            70.05,
            38.34,
            55.2,
            77.79,
            82.7,
            80.78,
            48.21,
            93.36,
            82.33,
            75.79,
            81.52,
            96.55,
            73.84,
            117.32,
            86.66,
            103.53,
            72.59,
            88.6,
            54.57,
            65.55,
            69.92,
            44.66,
            43.04,
            54.79,
            35.65,
            53.48,
            55.97,
            79.36,
            84.0,
            70.4,
            93.9,
            78.66,
            46.23,
            54.33,
            69.52,
            86.76,
            72.15,
            41.14,
            45.74,
            32.36,
            41.81,
            35.15,
            34.69,
            26.64,
            16.92,
            28.57,
            33.83,
            33.68,
            42.79,
            68.86,
            62.55,
            55.44,
            50.6,
            72.47,
            62.34,
            78.62,
            120.6,
            85.4,
            87.91,
            66.84,
            44.63,
            42.26,
            66.85,
            60.68,
            55.78,
            30.39,
            57.28,
            67.79,
            97.91,
            112.84,
            87.62,
            82.5,
            61.03,
            72.07,
            53.35,
            59.53,
            42.42,
            51.4,
            41.95,
            28.95,
            36.58,
            22.44,
            23.53,
            18.84,
            19.05,
            16.13,
            19.31,
            55.4,
            76.34,
            42.3,
            58.7,
            62.74,
            61.2,
            80.6,
            52.37,
            95.52,
            113.32,
            114.98,
            113.49,
            136.06,
            78.63,
            64.56,
            55.64,
            40.85,
            90.05,
            128.96,
            115.84,
            135.62,
            109.91,
            81.42,
            82.45,
            52.28,
            35.18,
            26.05,
            39.0,
            34.59,
            20.35,
            16.02,
            13.0,
            16.86,
            14.32,
            17.56,
            22.59,
            21.45,
            31.16,
            48.62,
            110.98,
            98.55,
            115.9,
            77.43,
            69.77,
            53.4,
            36.41,
            41.94,
            52.04,
            61.57,
            68.57,
            91.27,
            64.96,
            62.45,
            62.41,
            44.48,
            35.15,
            26.36,
            22.33,
            20.43,
            25.22,
            31.46,
            72.09,
            77.95,
            115.9,
            83.16,
            90.11,
            81.79,
            71.34,
            54.87,
            56.81,
            65.57,
            45.14,
            40.69,
            60.29,
            37.08,
            55.76,
            48.08,
            38.26,
            37.98,
            37.03,
            47.68,
            50.96,
            47.87,
            48.19,
            38.92,
            53.8,
            51.38,
            49.69,
            49.99,
            43.96,
            40.1,
            32.14,
            45.45,
            37.85,
            53.36,
            53.79,
            56.69,
            63.38,
            84.73,
            39.03,
            43.62,
            59.97,
            77.66,
            97.18,
            55.47,
            88.44,
            60.2,
            70.19,
            54.35,
            48.94,
            28.05,
            28.87,
            30.52,
            39.68,
            45.44,
            46.72,
            42.0,
            56.48,
            91.28,
            101.78,
            61.69,
            45.7,
            77.7,
            107.0,
            100.01,
            69.43,
            81.65,
            61.15,
            39.83,
            31.18,
            28.06,
            22.34,
            16.54,
            26.91,
            28.86,
            28.58,
            38.95,
            69.36,
            108.83,
            95.08,
            53.88,
            72.51,
            63.63,
            48.9,
            39.04,
            34.38,
            28.62,
            39.78,
            66.98,
            100.37,
            93.35,
            106.02,
            67.52,
            134.94,
            132.41,
            60.12,
            45.76,
            43.89,
            66.5,
            86.87,
            72.14,
            95.72,
            78.57,
            64.87,
            55.53,
            53.02,
            62.26,
            72.12,
            36.13,
            73.45,
            70.34,
            85.77,
            43.5,
            56.82,
            81.11,
            63.4,
            46.13,
            56.2,
            59.47,
            77.12,
            123.53,
            82.84,
            68.16,
            126.8,
            117.05,
            54.03,
            134.25,
            121.64,
            99.97,
            125.92,
            222.74,
            157.3,
            136.8,
            66.7,
            103.83,
            84.99,
            54.21,
            62.41,
            73.49,
            113.49,
            87.89,
            141.8,
            91.9,
            196.85,
            113.55,
            68.07,
            98.62,
            169.96,
            257.06,
            85.32,
            62.17,
            47.12,
            43.87,
            71.66,
            141.73,
            145.18,
            98.4,
            98.03,
            169.31,
            90.38,
            81.82,
            81.8,
            108.41,
            139.42,
            186.41,
            99.55,
            136.56,
            178.59,
            106.03,
            64.87,
            135.31,
            264.91,
            200.09,
            82.08,
            143.38,
            72.65,
            107.81,
            89.2,
            128.56,
            80.13,
            84.27,
            76.11,
            139.97,
            181.49,
            124.35,
            35.88,
            28.74,
            63.28,
            66.98,
            64.42,
            80.29,
            49.87,
            35.51,
            39.49,
            29.95,
            73.9,
            122.26,
            81.42,
            77.22,
            105.05,
            46.68,
            48.58,
            57.13,
            108.34,
            84.38,
            59.61,
            70.02,
            35.42,
            100.03,
            81.52,
            52.18,
            39.63,
            98.25,
            113.85,
            104.95,
            70.37,
            67.81,
            119.6,
            118.83,
            59.62,
            73.37,
            101.93,
            162.14,
            74.82,
            119.33,
            88.17,
            68.5,
            136.58,
            90.49,
            81.31,
            39.04,
            87.93,
            112.8,
            118.43,
            122.65,
            108.29,
            77.55,
            84.34,
            105.63,
            163.25,
            138.2,
            95.19,
            109.86,
            104.75,
            141.78,
            94.63,
            92.67,
            115.87,
            197.36,
            156.71,
            183.47,
            99.24,
            53.07,
            59.33,
            33.04,
            54.88,
            102.22,
            95.94,
            70.29,
            114.81,
            77.76,
            72.65,
            70.39,
            86.08,
            133.3,
            98.95,
            62.64,
            35.4,
            33.39,
            50.19,
            76.09,
            115.34,
            89.73,
            114.87,
            98.7,
            70.53,
            59.99,
            66.24,
            41.31,
            35.05,
            30.47,
            39.83,
            58.95,
            59.68,
            69.77,
            38.35,
            54.73,
            104.56,
            60.63,
            79.92,
            106.36,
            107.16,
            67.6,
            102.31,
            88.21,
            88.66
          ]
        ]
      }
    },
    "003": {
      "common": {
        "heads": [
          "ERR-SYS",
          "ERR-1",
          "ERR-2",
          "ERR-3",
          "ERR-4",
          "ERR-5",
          "ERR-6",
          "ERR-7"
        ],
        "units": [
          "PER-CENT",
          "PER-CENT",
          "PER-CENT",
          "PER-CENT",
          "PER-CENT",
          "PER-CENT",
          "PER-CENT",
          "PER-CENT"
        ],
        "data": [
          [
            6.6
          ],
          [
            3.0
          ],
          [
            1.6
          ],
          [
            0.2
          ],
          [
            2.9
          ],
          [
            3.4
          ],
          [
            1.0
          ],
          [
            1.0
          ]
        ]
      },
      "data": {
        "heads": [
          "EN",
          "DATA",
          "ERR-T"
        ],
        "units": [
          "EV",
          "B",
          "PER-CENT"
        ],
        "data": [
          [
            98798.5,
            102915.0,
            107294.0,
            111958.0,
            116934.0,
            122248.0,
            127933.0,
            134025.0,
            140561.0,
            147588.0,
            155156.0,
            163320.0,
            172147.0,
            181709.0,
            192090.0,
            203386.0,
            215710.0,
            229188.0,
            243970.0,
            260230.0,
            278171.0,
            298033.0,
            320101.0,
            344714.0,
            372279.0,
            403287.0,
            438337.0,
            478162.0,
            523673.0,
            576004.0,
            636590.0,
            707262.0,
            790391.0,
            889085.0,
            1007490.0,
            1151220.0,
            1328060.0,
            1549000.0,
            1830050.0
          ],
          [
            0.68974,
            0.6448,
            0.64744,
            0.77268,
            0.8672,
            0.58502,
            0.69834,
            0.75754,
            0.78227,
            0.82218,
            0.73262,
            0.5753,
            0.69976,
            0.5995,
            0.66236,
            0.66666,
            0.83208,
            0.64924,
            0.74487,
            0.81984,
            0.88165,
            0.73567,
            0.82261,
            0.65911,
            0.68557,
            0.85342,
            0.79785,
            0.77309,
            0.91425,
            0.9517,
            1.019,
            1.0098,
            1.0716,
            1.061,
            0.99804,
            0.98904,
            1.1808,
            1.2876,
            1.6883
          ],
          [
            28.34,
            25.25,
            17.44,
            13.11,
            12.07,
            16.89,
            15.1,
            11.79,
            14.65,
            11.66,
            14.54,
            12.46,
            10.89,
            13.41,
            17.18,
            13.22,
            15.3,
            11.08,
            16.39,
            16.68,
            11.63,
            9.75,
            10.26,
            10.69,
            13.97,
            8.85,
            12.46,
            10.98,
            10.45,
            10.57,
            10.91,
            14.58,
            9.93,
            8.96,
            12.33,
            8.56,
            8.5,
            8.14,
            8.59
          ]
        ]
      }
    },
    "004": {
      "common": null,
      "data": {
        "heads": [
          "EN-MIN",
          "EN-MAX",
          "DATA",
          "DATA-ERR"
        ],
        "units": [
          "EV",
          "EV",
          "B",
          "B"
        ],
        "data": [
          [
            43.0,
            65.0,
            100.0,
            200.0,
            300.0,
            400.0,
            500.0,
            600.0,
            700.0,
            800.0,
            900.0
          ],
          [
            65.0,
            100.0,
            200.0,
            300.0,
            400.0,
            500.0,
            600.0,
            700.0,
            800.0,
            900.0,
            1000.0
          ],
          [
            3.89,
            5.06,
            1.52,
            2.29,
            1.51,
            1.37,
            3.31,
            2.27,
            2.18,
            2.27,
            4.02
          ],
          [
            0.93,
            0.32,
            0.1,
            0.16,
            0.15,
            0.2,
            0.35,
            0.3,
            0.33,
            0.34,
            0.54
          ]
        ]
      }
    }
  },
  "experimental_conditions": {
    "001": {
      "0": {
        "correction": [
          {
            "x4_code": null,
            "free_txt": [
              "Corrected for background.",
              "Corrected for 237Np contaminant above 100 keV.",
              " Contribution negligible in low-energy region."
            ]
          }
        ],
        "decay-data": [
          {
            "x4_code": "(92-U-237,6.7D)",
            "free_txt": []
          }
        ],
        "inc-source": [
          {
            "x4_code": "(EXPLO)",
            "free_txt": [
              " Pommard."
            ]
          }
        ],
        "method": [
          {
            "x4_code": "(TOF)",
            "free_txt": [
              " Time-of-flight. 213.82-m flight path from",
              "  moderator face."
            ]
          }
        ],
        "sample": [
          {
            "x4_code": null,
            "free_txt": [
              "18.1+-0.5 microg. of 237U deposited on",
              " stainless-steel foil. 38% contaminant of 237Np."
            ]
          }
        ],
        "status": [
          {
            "x4_code": "(APRVD)",
            "free_txt": [
              " Approved by author"
            ]
          },
          {
            "x4_code": "(TABLE)",
            "free_txt": [
              " Data received on magnetic tape from P.A.",
              "        Seeger, August, 1970."
            ]
          }
        ]
      }
    },
    "002": {
      "0": {
        "comment": [
          {
            "x4_code": null,
            "free_txt": [
              "**** BY COMPILER. Negative cross sections and large",
              "  uncertainties likely caused by imperfect background",
              "  subtraction and low neutron flux."
            ]
          }
        ],
        "detector": [
          {
            "x4_code": "(SOLST)",
            "free_txt": [
              " Low resolution solid state detector in",
              " current recording mode at 90 degrees."
            ]
          }
        ],
        "err-analys": [
          {
            "x4_code": "(ERR-T)",
            "free_txt": [
              " Standard deviation."
            ]
          },
          {
            "x4_code": "(ERR-SYS,,,1.0)",
            "free_txt": [
              " Systematic uncertainty. Includes",
              "contribution due to uncertainties in:"
            ]
          },
          {
            "x4_code": "(ERR-1)",
            "free_txt": [
              " Target density"
            ]
          },
          {
            "x4_code": "(ERR-2)",
            "free_txt": [
              " Detector geometry"
            ]
          },
          {
            "x4_code": "(ERR-3)",
            "free_txt": [
              " Reference"
            ]
          },
          {
            "x4_code": "(ERR-4)",
            "free_txt": [
              " Flux determination"
            ]
          },
          {
            "x4_code": "(ERR-5)",
            "free_txt": [
              " Fragment energy"
            ]
          },
          {
            "x4_code": "(ERR-6)",
            "free_txt": [
              " Base line"
            ]
          },
          {
            "x4_code": "(ERR-7)",
            "free_txt": [
              " Amplifier input R"
            ]
          }
        ],
        "monitor": [
          {
            "x4_code": "(3-LI-6(N,T)2-HE-4,,SIG)",
            "free_txt": [
              " Flux relative to",
              " 6Li(n,alpha) at 2200m/sec, assuming 1/v dependence."
            ]
          }
        ]
      }
    },
    "003": {
      "0": {
        "analysis": [
          {
            "x4_code": null,
            "free_txt": [
              "Weighted average of 55 and 90 degree data."
            ]
          }
        ],
        "comment": [
          {
            "x4_code": null,
            "free_txt": [
              "Data from 100 keV to 1 keV were lost due to malfunction",
              " of every amplifier at 50 microsec. after the burst."
            ]
          }
        ],
        "detector": [
          {
            "x4_code": "(SOLST)",
            "free_txt": [
              " 2 low resolution solid state detectors in",
              " current recording mode at angles of 55 and 90",
              " degrees."
            ]
          }
        ],
        "err-analys": [
          {
            "x4_code": "(ERR-T)",
            "free_txt": [
              " Total uncertainty, includes systematic and",
              " statistical uncertainty."
            ]
          },
          {
            "x4_code": "(ERR-SYS,,,1.0)",
            "free_txt": [
              " Systematic uncertainty. Includes",
              " contribution due to uncertainties in:"
            ]
          },
          {
            "x4_code": "(ERR-1)",
            "free_txt": [
              " Target density"
            ]
          },
          {
            "x4_code": "(ERR-2)",
            "free_txt": [
              " Detector geometry"
            ]
          },
          {
            "x4_code": "(ERR-3)",
            "free_txt": [
              " Reference"
            ]
          },
          {
            "x4_code": "(ERR-4)",
            "free_txt": [
              " Flux determination"
            ]
          },
          {
            "x4_code": "(ERR-5)",
            "free_txt": [
              " Fragment energy"
            ]
          },
          {
            "x4_code": "(ERR-6)",
            "free_txt": [
              " Amplifier input R"
            ]
          }
        ],
        "monit-ref": [
          {
            "x4_code": "(,W.G.Davey+,J,NSE,32,35,1968)",
            "free_txt": []
          }
        ],
        "monitor": [
          {
            "x4_code": "(92-U-235(N,F),,SIG)",
            "free_txt": [
              " Flux relative to 235U fission of Davey, modified for",
              " angular correlation to give 55 degree data.",
              " Values used given in Table II in main reference."
            ]
          }
        ]
      }
    },
    "004": {
      "0": {
        "err-analys": [
          {
            "x4_code": "(DATA-ERR)",
            "free_txt": [
              " No information given on uncertainties."
            ]
          }
        ],
        "status": [
          {
            "x4_code": "(TABLE)",
            "free_txt": [
              " data taken from Table V in reference."
            ]
          },
          {
            "x4_code": "(DEP,10059002)",
            "free_txt": []
          },
          {
            "x4_code": "(DEP,10059003)",
            "free_txt": []
          }
        ]
      }
    }
  }
}