{
  "bib": {
    "title": "Fission Cross Sections From Pommard.",
    "authors": [
      {
        "name": "J.D.Cramer"
      },
      {
        "name": "D.W.Bergen"
      }
    ],
    "institutes": [
      {
        "x4_code": "(1USALAS)",
        "free_txt": []
      }
    ],
    "references": {
      "0": [
        {
          "x4_code": "(R,LA-4420,74,197006)",
          "free_txt": [],
          "publication_year": "1970"
        }
      ]
    },
    "history": [
      {
        "x4_code": "(19710408C)",
        "free_txt": []
      },
      {
        "x4_code": "(19810529A)",
        "free_txt": [
          " Converted to REACTION formalism."
        ]
      },
      {
        "x4_code": "(19990907A)",
        "free_txt": [
          " Converted to new date formalism."
        ]
      },
      {
        "x4_code": "(20101014A)",
        "free_txt": [
          " BIB updates. Subentry 002 updated;",
          "   High energy data moved to subentry 003."
        ]
      }
    ]
  },
  "10058-001": {
    "extra_information": {
      "correction": {
        "0": [
          {
            "x4_code": null,
            "free_txt": [
              "No correction made for 0.15% 235U content of target,",
              " or for gamma-ray sensitivity of fission detectors."
            ]
          }
        ]
      },
      "detector": {
        "0": [
          {
            "x4_code": "(SOLST)",
            "free_txt": [
              " 2 low resolution solid state detectors in",
              " current recording mode at angles of 55 and 90",
              " degrees."
            ]
          }
        ]
      },
      "err-analys": {
        "0": [
          {
            "x4_code": "(ERR-T)",
            "free_txt": [
              " Standard deviation."
            ]
          },
          {
            "x4_code": "(ERR-SYS,,,1.0)",
            "free_txt": [
              " Correlated error"
            ]
          }
        ]
      },
      "inc-source": {
        "0": [
          {
            "x4_code": "(EXPLO)",
            "free_txt": [
              " Pommard."
            ]
          }
        ]
      },
      "method": {
        "0": [
          {
            "x4_code": "(TOF)",
            "free_txt": [
              " Time-of-flight. 214.43-m flight path."
            ]
          }
        ]
      },
      "status": {
        "0": [
          {
            "x4_code": "(APRVD)",
            "free_txt": [
              " Approved by AUTHOR"
            ]
          },
          {
            "x4_code": "(TABLE)",
            "free_txt": [
              " Data received on magnetic tape from P.A.",
              "        Seeger, August, 1970."
            ]
          }
        ]
      }
    }
  },
  "10058-002": {
    "reaction": {
      "0": {
        "x4_code": "(92-U-236(N,F),,SIG)",
        "0": {
          "code": [
            "92-U-236",
            [
              "N,F"
            ],
            ",,SIG"
          ],
          "type": null,
          "target": "92-U-236",
          "process": "N,F",
          "sf49": ",,SIG",
          "sf4": null,
          "sf5": null,
          "sf6": "SIG",
          "sf7": null,
          "sf8": null,
          "sf9": null
        },
        "type": null,
        "free_text": ""
      }
    },
    "extra_information": {
      "monitor": {
        "0": [
          {
            "x4_code": "(3-LI-6(N,T)2-HE-4,,SIG)",
            "free_txt": [
              " Flux relative to 6Li(n,alpha)",
              "  at 2200m/sec, assuming 1/v dependence."
            ]
          }
        ]
      }
    },
    "common": {
      "heads": [
        "ERR-SYS",
        "EN-NRM",
        "MONIT",
        "MONIT-ERR"
      ],
      "units": [
        "PER-CENT",
        "EV",
        "B",
        "B"
      ],
      "data": [
        [
          4.8
        ],
        [
          0.0253
        ],
        [
          940.3
        ],
        [
          1.6
        ]
      ]
    },
    "data": {
      "heads": [
        "EN",
        "DATA",
        "ERR-T"
      ],
      "units": [
        "EV",
        "B",
        "PER-CENT"
      ],
      "data": [
        [
          35.2499,
          35.3499,
          35.4499,
          35.5499,
          35.6499,
          35.7499,
          35.8499,
          35.9499,
          36.0499,
          36.1499,
          36.2499,
          36.3499,
          36.4499,
          36.5499,
          36.6499,
          36.7499,
          36.8499,
          36.9499,
          37.0499,
          37.1499,
          37.2499,
          37.3499,
          37.4499,
          37.5499,
          37.6499,
          37.7499,
          37.8499,
          37.9499,
          38.0499,
          38.1499,
          38.2499,
          38.3499,
          38.4499,
          38.5499,
          38.6499,
          38.7499,
          38.8499,
          38.9499,
          39.0499,
          39.1499,
          39.2499,
          39.3499,
          39.4499,
          39.5499,
          39.6499,
          39.7499,
          39.8499,
          39.9499,
          40.0499,
          40.1499,
          40.2499,
          40.3499,
          40.4499,
          40.5499,
          40.6499,
          40.7499,
          40.8499,
          40.9499,
          41.0499,
          41.1499,
          41.2499,
          41.3499,
          41.4499,
          41.5499,
          41.6499,
          41.7499,
          41.8499,
          41.9499,
          42.0499,
          42.1499,
          42.2499,
          42.3499,
          42.4499,
          42.5499,
          42.6499,
          42.7499,
          42.8499,
          42.9499,
          43.0499,
          43.1499,
          43.2499,
          43.3499,
          43.4499,
          43.5499,
          43.6499,
          43.7499,
          43.8499,
          43.9499,
          44.0499,
          44.1499,
          44.2499,
          44.3499,
          44.4499,
          44.5499,
          44.6499,
          44.7499,
          44.8499,
          44.9499,
          45.0499,
          45.1499,
          45.2499,
          45.3499,
          45.4499,
          45.5499,
          45.6499,
          45.7499,
          45.8499,
          45.9499,
          46.0499,
          46.1499,
          46.2499,
          46.3499,
          46.4499,
          46.5499,
          46.6499,
          46.7499,
          46.8499,
          46.9499,
          47.0499,
          47.1499,
          47.2499,
          47.3499,
          47.4499,
          47.5499,
          47.6499,
          47.7499,
          47.8499,
          47.9499,
          48.0499,
          48.1499,
          48.2499,
          48.3499,
          48.4499,
          48.5499,
          48.6499,
          48.7499,
          48.8499,
          48.9499,
          49.0499,
          49.1499,
          49.2499,
          49.3499,
          49.4499,
          49.5499,
          49.6499,
          49.7499,
          49.8499,
          49.9499,
          50.0499,
          50.1499,
          50.2499,
          50.3499,
          50.4499,
          50.5499,
          50.6499,
          50.7499,
          50.8499,
          50.9499,
          51.0499,
          51.1499,
          51.2499,
          51.3499,
          51.4499,
          51.5499,
          51.6499,
          51.7499,
          51.8499,
          51.9499,
          52.0499,
          52.1499,
          52.2499,
          52.3499,
          52.4499,
          52.5499,
          52.6499,
          52.7499,
          52.8499,
          52.9499,
          53.0499,
          53.1499,
          53.2499,
          53.3499,
          53.4499,
          53.5499,
          53.6499,
          53.7499,
          53.8499,
          53.9499,
          54.0499,
          54.1499,
          54.2499,
          54.3499,
          54.4499,
          54.5499,
          54.6499,
          54.7499,
          54.8499,
          54.9499,
          55.0499,
          55.1499,
          55.2499,
          55.3499,
          55.4499,
          55.5499,
          55.6499,
          55.7499,
          55.8499,
          55.9499,
          56.0499,
          56.1499,
          56.2499,
          56.3499,
          56.4499,
          56.5499,
          56.6499,
          56.7499,
          56.8499,
          56.95,
          57.05,
          57.15,
          57.25,
          57.35,
          57.45,
          57.55,
          57.65,
          57.75,
          57.85,
          57.95,
          58.05,
          58.15,
          58.25,
          58.35,
          58.45,
          58.55,
          58.65,
          58.75,
          58.85,
          58.95,
          59.05,
          59.15,
          59.25,
          59.35,
          59.45,
          59.55,
          59.65,
          59.75,
          59.85,
          59.95,
          60.05,
          60.15,
          60.25,
          60.35,
          60.45,
          60.55,
          60.65,
          60.75,
          60.85,
          60.95,
          61.05,
          61.15,
          61.25,
          61.35,
          61.45,
          61.55,
          61.65,
          61.75,
          61.85,
          61.95,
          62.05,
          62.15,
          62.25,
          62.35,
          62.45,
          62.55,
          62.65,
          62.75,
          62.85,
          62.95,
          63.05,
          63.15,
          63.25,
          63.35,
          63.45,
          63.55,
          63.65,
          63.75,
          63.85,
          63.95,
          64.05,
          64.15,
          64.25,
          64.35,
          64.45,
          64.55,
          64.65,
          64.75,
          64.85,
          64.95,
          65.05,
          65.15,
          65.25,
          65.35,
          65.45,
          65.55,
          65.65,
          65.75,
          65.85,
          65.95,
          66.05,
          66.15,
          66.25,
          66.35,
          66.45,
          66.55,
          66.65,
          66.75,
          66.85,
          66.95,
          67.05,
          67.15,
          67.25,
          67.35,
          67.45,
          67.55,
          67.65,
          67.75,
          67.85,
          67.95,
          68.05,
          68.15,
          68.25,
          68.35,
          68.45,
          68.55,
          68.65,
          68.75,
          68.85,
          68.95,
          69.05,
          69.15,
          69.25,
          69.35,
          69.45,
          69.55,
          69.65,
          69.6985,
          69.7734,
          69.8483,
          69.9234,
          69.9986,
          70.0739,
          70.1493,
          70.2249,
          70.3006,
          70.3764,
          70.4523,
          70.5284,
          70.6045,
          70.6808,
          70.7573,
          70.8338,
          70.9105,
          70.9873,
          71.0642,
          71.1412,
          71.2184,
          71.2957,
          71.3731,
          71.4507,
          71.5283,
          71.6061,
          71.6841,
          71.7621,
          71.8403,
          71.9186,
          71.997,
          72.0756,
          72.1543,
          72.2331,
          72.3121,
          72.3912,
          72.4704,
          72.5497,
          72.6292,
          72.7088,
          72.7885,
          72.8684,
          72.9484,
          73.0285,
          73.1088,
          73.1892,
          73.2697,
          73.3504,
          73.4312,
          73.5121,
          73.5932,
          73.6744,
          73.7557,
          73.8372,
          73.9188,
          74.0005,
          74.0824,
          74.1644,
          74.2465,
          74.3288,
          74.4112,
          74.4938,
          74.5765,
          74.6593,
          74.7423,
          74.8254,
          74.9086,
          74.992,
          75.0755,
          75.1592,
          75.243,
          75.3269,
          75.411,
          75.4952,
          75.5796,
          75.6641,
          75.7488,
          75.8336,
          75.9185,
          76.0036,
          76.0888,
          76.1741,
          76.2597,
          76.3453,
          76.4311,
          76.517,
          76.6031,
          76.6894,
          76.7757,
          76.8623,
          76.9489,
          77.0357,
          77.1227,
          77.2098,
          77.2971,
          77.3845,
          77.472,
          77.5597,
          77.6476,
          77.7356,
          77.8237,
          77.912,
          78.0005,
          78.0891,
          78.1779,
          78.2668,
          78.3558,
          78.445,
          78.5344,
          78.6239,
          78.7136,
          78.8034,
          78.8934,
          78.9835,
          79.0738,
          79.1642,
          79.2548,
          79.3456,
          79.4365,
          79.5275,
          79.6188,
          79.7101,
          79.8017,
          79.8934,
          79.9852,
          80.0772,
          80.1694,
          80.2617,
          80.3542,
          80.4468,
          80.5397,
          80.6326,
          80.7257,
          80.819,
          80.9125,
          81.0061,
          81.0999,
          81.1938,
          81.2879,
          81.3822,
          81.4766,
          81.5712,
          81.666,
          81.7609,
          81.856,
          81.9513,
          82.0467,
          82.1423,
          82.238,
          82.334,
          82.4301,
          82.5263,
          82.6227,
          82.7193,
          82.8161,
          82.9131,
          83.0102,
          83.1074,
          83.2049,
          83.3025,
          83.4003,
          83.4983,
          83.5964,
          83.6947,
          83.7932,
          83.8919,
          83.9907,
          84.0897,
          84.1889,
          84.2883,
          84.3878,
          84.4875,
          84.5874,
          84.6875,
          84.7877,
          84.8882,
          84.9888,
          85.0896,
          85.1905,
          85.2917,
          85.393,
          85.4945,
          85.5962,
          85.698,
          85.8001,
          85.9023,
          86.0047,
          86.1073,
          86.2101,
          86.3131,
          86.4162,
          86.5195,
          86.6231,
          86.7268,
          86.8307,
          86.9347,
          87.039,
          87.1435,
          87.2481,
          87.3529,
          87.4579,
          87.5632,
          87.6686,
          87.7741,
          87.8799,
          87.9859,
          88.0921,
          88.1984,
          88.305,
          88.4117,
          88.5186,
          88.6258,
          88.7331,
          88.8406,
          88.9483,
          89.0563,
          89.1644,
          89.2727,
          89.3812,
          89.4899,
          89.5988,
          89.7079,
          89.8172,
          89.9267,
          90.0364,
          90.1463,
          90.2564,
          90.3667,
          90.4772,
          90.5879,
          90.6988,
          90.8099,
          90.9212,
          91.0327,
          91.1445,
          91.2564,
          91.3686,
          91.4809,
          91.5935,
          91.7062,
          91.8192,
          91.9324,
          92.0458,
          92.1594,
          92.2732,
          92.3872,
          92.5014,
          92.6159,
          92.7305,
          92.8454,
          92.9605,
          93.0758,
          93.1913,
          93.3071,
          93.423,
          93.5392,
          93.6555,
          93.7721,
          93.8889,
          94.006,
          94.1232,
          94.2407,
          94.3584,
          94.4763,
          94.5944,
          94.7128,
          94.8314,
          94.9502,
          95.0692,
          95.1884,
          95.3079,
          95.4276,
          95.5475,
          95.6677,
          95.7881,
          95.9087,
          96.0295,
          96.1506,
          96.2719,
          96.3934,
          96.5151,
          96.6371,
          96.7593,
          96.8818,
          97.0044,
          97.1273,
          97.2505,
          97.3739,
          97.4975,
          97.6213,
          97.7454,
          97.8697,
          97.9943,
          98.1191,
          98.2441,
          98.3694,
          98.4949,
          98.6207,
          98.7467,
          98.8729,
          98.9994,
          99.1261,
          99.2531,
          99.3803,
          99.5077,
          99.6354,
          99.7634,
          99.8916,
          100.02,
          100.149,
          100.278,
          100.407,
          100.536,
          100.666,
          100.796,
          100.926,
          101.057,
          101.187,
          101.318,
          101.449,
          101.581,
          101.713,
          101.845,
          101.977,
          102.109,
          102.242,
          102.375,
          102.508,
          102.642,
          102.776,
          102.91,
          103.044,
          103.179,
          103.313,
          103.448,
          103.584,
          103.719,
          103.855,
          103.992,
          104.128,
          104.265,
          104.402,
          104.539,
          104.676,
          104.814,
          104.952,
          105.091,
          105.229,
          105.368,
          105.507,
          105.647,
          105.786,
          105.926,
          106.067,
          106.207,
          106.348,
          106.489,
          106.63,
          106.772,
          106.914,
          107.056,
          107.199,
          107.342,
          107.485,
          107.628,
          107.772,
          107.916,
          108.06,
          108.204,
          108.349,
          108.494,
          108.64,
          108.785,
          108.931,
          109.078,
          109.224,
          109.371,
          109.518,
          109.666,
          109.814,
          109.962,
          110.11,
          110.259,
          110.408,
          110.557,
          110.706,
          110.856,
          111.006,
          111.157,
          111.308,
          111.459,
          111.61,
          111.762,
          111.914,
          112.066,
          112.219,
          112.372,
          112.525,
          112.679,
          112.833,
          112.987,
          113.141,
          113.296,
          113.451,
          113.607,
          113.763,
          113.919,
          114.075,
          114.232,
          114.389,
          114.546,
          114.704,
          114.862,
          115.021,
          115.179,
          115.338,
          115.498,
          115.658,
          115.818,
          115.978,
          116.139,
          116.3,
          116.461,
          116.623,
          116.785,
          116.947,
          117.11,
          117.273,
          117.436,
          117.6,
          117.764,
          117.929,
          118.094,
          118.259,
          118.424,
          118.59,
          118.756,
          118.923,
          119.09,
          119.257,
          119.424,
          119.592,
          119.761,
          119.929,
          120.098,
          120.268,
          120.437,
          120.607,
          120.778,
          120.949,
          121.12,
          121.291,
          121.463,
          121.635,
          121.808,
          121.981,
          122.154,
          122.328,
          122.502,
          122.677,
          122.851,
          123.027,
          123.202,
          123.378,
          123.555,
          123.731,
          123.908,
          124.086,
          124.264,
          124.442,
          124.621,
          124.8,
          124.979,
          125.159,
          125.339,
          125.52,
          125.701,
          125.882,
          126.064,
          126.246,
          126.428,
          126.611,
          126.795,
          126.978,
          127.162,
          127.347,
          127.532,
          127.717,
          127.903,
          128.089,
          128.276,
          128.463,
          128.65,
          128.838,
          129.026,
          129.214,
          129.403,
          129.593,
          129.783,
          129.973,
          130.164,
          130.355,
          130.546,
          130.738,
          130.931,
          131.123,
          131.317,
          131.51,
          131.704,
          131.899,
          132.094,
          132.289,
          132.485,
          132.681,
          132.878,
          133.075,
          133.273,
          133.471,
          133.669,
          133.868,
          134.067,
          134.267,
          134.467,
          134.668,
          134.869,
          135.07,
          135.272,
          135.475,
          135.678,
          135.881,
          136.085,
          136.289,
          136.494,
          136.699,
          136.905,
          137.111,
          137.318,
          137.525,
          137.732,
          137.94,
          138.149,
          138.358,
          138.567,
          138.777,
          138.988,
          139.199,
          139.41,
          139.622,
          139.834,
          140.047,
          140.26,
          140.474,
          140.688,
          140.903,
          141.334,
          141.55,
          141.767,
          141.984,
          142.202,
          142.42,
          142.639,
          142.858,
          143.078,
          143.298,
          143.519,
          143.74,
          143.962,
          144.184,
          144.407,
          144.63,
          144.854,
          145.079,
          145.303,
          145.529,
          145.755,
          145.981,
          146.208,
          146.436,
          146.664,
          146.892,
          147.122,
          147.351,
          147.581,
          147.812,
          148.043,
          148.275,
          148.508,
          148.741,
          148.974,
          149.208,
          149.443,
          149.678,
          149.913,
          150.15,
          150.386,
          150.624,
          150.862,
          151.1,
          151.339,
          151.579,
          151.819,
          152.06,
          152.301,
          152.543,
          152.786,
          153.029,
          153.272,
          153.517,
          153.761,
          154.007,
          154.253,
          154.499,
          154.746,
          154.994,
          155.243,
          155.492,
          155.741,
          155.991,
          156.242,
          156.493,
          156.745,
          156.998,
          157.251,
          157.505,
          157.759,
          158.014,
          158.27,
          158.526,
          158.783,
          159.041,
          159.299,
          159.558,
          159.817,
          160.077,
          160.338,
          160.599,
          160.861,
          161.124,
          161.387,
          161.651,
          161.915,
          162.181,
          162.446,
          162.713,
          162.98,
          163.248,
          163.516,
          163.785,
          164.055,
          164.326,
          164.597,
          164.869,
          165.141,
          165.414,
          165.688,
          165.963,
          166.238,
          166.514,
          166.79,
          167.068,
          167.346,
          167.624,
          167.904,
          168.184,
          168.464,
          168.746,
          169.028,
          169.311,
          169.594,
          169.879,
          170.164,
          170.449,
          170.736,
          171.023,
          171.311,
          171.599,
          171.889,
          172.179,
          172.47,
          172.761,
          173.054,
          173.347,
          173.64,
          173.935,
          174.23,
          174.526,
          174.823,
          175.121,
          175.419,
          175.718,
          176.018,
          176.318,
          176.62,
          176.922,
          177.225,
          177.529,
          177.833,
          178.138,
          178.444,
          178.751,
          179.059,
          179.367,
          179.676,
          179.987,
          180.297,
          180.609,
          180.921,
          181.235,
          181.549,
          181.864,
          182.179,
          182.496,
          182.813,
          183.131,
          183.45,
          183.77,
          184.091,
          184.413,
          184.735,
          185.058,
          185.382,
          185.707,
          186.033,
          186.36,
          186.687,
          187.015,
          187.345,
          187.675,
          188.006,
          188.338,
          188.67,
          189.004,
          189.338,
          189.674,
          190.01,
          190.347,
          190.685,
          191.024,
          191.364,
          191.705,
          192.047,
          192.389,
          192.733,
          193.077,
          193.423,
          193.769,
          194.116,
          194.464,
          194.814,
          195.164,
          195.515,
          195.867,
          196.219,
          196.573,
          196.928,
          197.284,
          197.641,
          197.998,
          198.357,
          198.717,
          199.077,
          199.439,
          199.802,
          200.165,
          200.53,
          200.895,
          201.262,
          201.629,
          201.998,
          202.368,
          202.738,
          203.11,
          203.483,
          203.856,
          204.231,
          204.607,
          204.984,
          205.361,
          205.74,
          206.12,
          206.501,
          206.883,
          207.266,
          207.651,
          208.036,
          208.422,
          208.81,
          209.198,
          209.588,
          209.978,
          210.37,
          210.763,
          211.157,
          211.552,
          211.948,
          212.345,
          212.744,
          213.143,
          213.544,
          213.946,
          214.348,
          214.752,
          215.158,
          215.564,
          215.971,
          216.38,
          216.79,
          217.201,
          217.613,
          218.026,
          218.441,
          218.857,
          219.273,
          219.691,
          220.111,
          220.531,
          220.953,
          221.376,
          221.8,
          222.225,
          222.652,
          223.079,
          223.508,
          223.939,
          224.37,
          224.803,
          225.237,
          225.672,
          226.109,
          226.546,
          226.985,
          227.426,
          227.867,
          228.31,
          228.754,
          229.2,
          229.647,
          230.095,
          230.544,
          230.995,
          231.447,
          231.9,
          232.355,
          232.811,
          233.269,
          233.727,
          234.187,
          234.649,
          235.112,
          235.576,
          236.041,
          236.508,
          236.977,
          237.446,
          237.918,
          238.39,
          238.864,
          239.339,
          239.816,
          240.294,
          240.774,
          241.255,
          241.738,
          242.222,
          242.707,
          243.194,
          243.682,
          244.172,
          244.664,
          245.156,
          245.651,
          246.146,
          246.644,
          247.142,
          247.643,
          248.145,
          248.648,
          249.153,
          249.659,
          250.167,
          250.677,
          251.188,
          251.701,
          252.215,
          252.731,
          253.248,
          253.767,
          254.287,
          254.81,
          255.333,
          255.859,
          256.386,
          256.915,
          257.445,
          257.977,
          258.51,
          259.046,
          259.583,
          260.121,
          260.661,
          261.203,
          261.747,
          262.292,
          262.839,
          263.388,
          263.939,
          264.491,
          265.045,
          265.6,
          266.158,
          266.717,
          267.278,
          267.841,
          268.405,
          268.972,
          269.54,
          270.11,
          270.681,
          271.255,
          271.83,
          272.407,
          272.986,
          273.567,
          274.15,
          274.734,
          275.321,
          275.909,
          276.5,
          277.092,
          277.686,
          278.282,
          278.879,
          279.479,
          280.081,
          280.685,
          281.29,
          281.898,
          282.507,
          283.119,
          283.733,
          284.348,
          284.966,
          285.585,
          286.207,
          286.83,
          287.456,
          288.084,
          288.713,
          289.345,
          289.979,
          290.615,
          291.253,
          291.893,
          292.536,
          293.18,
          293.827,
          294.475,
          295.126,
          295.779,
          296.434,
          297.092,
          297.751,
          298.413,
          299.077,
          299.743,
          300.411,
          301.082,
          301.755,
          302.43,
          303.108,
          303.787,
          304.469,
          305.153,
          305.84,
          306.529,
          307.22,
          307.914,
          308.61,
          309.308,
          310.009,
          310.712,
          311.417,
          312.125,
          312.835,
          313.548,
          314.263,
          314.981,
          315.701,
          316.423,
          317.148,
          317.876,
          318.606,
          319.338,
          320.073,
          320.811,
          321.551,
          322.294,
          323.039,
          323.787,
          324.537,
          325.291,
          326.046,
          326.805,
          327.566,
          328.329,
          329.096,
          329.865,
          330.636,
          331.411,
          332.188,
          332.968,
          333.751,
          334.536,
          335.324,
          336.115,
          336.909,
          337.706,
          338.505,
          339.307,
          340.112,
          340.92,
          341.731,
          342.545,
          343.362,
          344.181,
          345.004,
          345.829,
          346.658,
          347.489,
          348.324,
          349.161,
          350.002,
          350.845,
          351.692,
          352.541,
          353.394,
          354.25,
          355.109,
          355.971,
          356.836,
          357.704,
          358.576,
          359.451,
          360.329,
          361.21,
          362.094,
          362.982,
          363.873,
          364.767,
          365.664,
          366.565,
          367.469,
          368.377,
          369.288,
          370.202,
          371.12,
          372.041,
          372.965,
          373.893,
          374.825,
          375.76,
          376.698,
          377.64,
          378.585,
          379.534,
          380.487,
          381.443,
          382.403,
          383.366,
          384.333,
          385.304,
          386.279,
          387.257,
          388.239,
          389.224,
          390.213,
          391.207,
          392.204,
          393.204,
          394.209,
          395.217,
          396.23,
          397.246,
          398.266,
          399.29,
          400.318,
          401.35,
          402.386,
          403.426,
          404.47,
          405.518,
          406.57,
          407.626,
          408.687,
          409.751,
          410.82,
          411.893,
          412.97,
          414.051,
          415.137,
          416.227,
          417.321,
          418.419,
          419.522,
          420.629,
          421.741,
          422.857,
          423.977,
          425.102,
          426.231,
          427.365,
          428.504,
          429.647,
          430.794,
          431.946,
          433.103,
          434.264,
          435.431,
          436.601,
          437.777,
          438.957,
          440.142,
          441.332,
          442.527,
          443.726,
          444.931,
          446.14,
          447.354,
          448.574,
          449.798,
          451.027,
          452.262,
          453.501,
          454.746,
          455.995,
          457.25,
          458.51,
          459.775,
          461.046,
          462.321,
          463.602,
          464.889,
          466.18,
          467.477,
          468.78,
          470.088,
          471.401,
          472.72,
          474.045,
          475.375,
          476.711,
          478.052,
          479.399,
          480.752,
          482.11,
          483.474,
          484.844,
          486.22,
          487.602,
          488.99,
          490.383,
          491.783,
          493.188,
          494.6,
          496.017,
          497.441,
          498.871,
          500.307,
          501.749,
          503.198,
          504.652,
          506.113,
          507.581,
          509.055,
          510.535,
          512.022,
          513.515,
          515.015,
          516.521,
          518.034,
          519.554,
          521.08,
          522.613,
          524.153,
          525.7,
          527.253,
          528.814,
          530.381,
          531.955,
          533.537,
          535.125,
          536.721,
          538.323,
          539.933,
          541.55,
          543.175,
          544.806,
          546.445,
          548.092,
          549.746,
          551.407,
          553.076,
          554.753,
          556.437,
          558.129,
          559.828,
          561.536,
          563.251,
          564.974,
          566.705,
          568.444,
          570.191,
          571.946,
          573.709,
          575.48,
          577.26,
          579.048,
          580.844,
          582.648,
          584.461,
          586.283,
          588.113,
          589.951,
          591.798,
          593.654,
          595.519,
          597.392,
          599.274,
          601.165,
          603.066,
          604.975,
          606.893,
          608.82,
          610.757,
          612.703,
          614.658,
          616.622,
          618.596,
          620.58,
          622.573,
          624.575,
          626.588,
          628.61,
          630.641,
          632.683,
          634.735,
          636.796,
          638.868,
          640.95,
          643.042,
          645.144,
          647.257,
          649.38,
          651.513,
          653.657,
          655.812,
          657.977,
          660.153,
          662.34,
          664.538,
          666.746,
          668.966,
          671.197,
          673.439,
          675.692,
          677.957,
          680.233,
          682.52,
          684.819,
          687.13,
          689.452,
          691.786,
          694.132,
          696.49,
          698.86,
          701.242,
          703.637,
          706.043,
          708.462,
          710.894,
          713.338,
          715.795,
          718.264,
          720.746,
          723.241,
          725.749,
          728.27,
          730.804,
          733.352,
          735.913,
          738.487,
          741.075,
          743.676,
          746.291,
          748.92,
          751.563,
          754.22,
          756.891,
          759.577,
          762.276,
          764.99,
          767.719,
          770.462,
          773.22,
          775.992,
          778.78,
          781.583,
          784.401,
          787.234,
          790.082,
          792.946,
          795.826,
          798.721,
          801.632,
          804.559,
          807.502,
          810.462,
          813.437,
          816.429,
          819.438,
          822.463,
          825.505,
          828.564,
          831.64,
          834.733,
          837.844,
          840.972,
          844.117,
          847.28,
          850.461,
          853.66,
          856.877,
          860.112,
          863.366,
          866.638,
          869.928,
          873.238,
          876.566,
          879.914,
          883.28,
          886.666,
          890.072,
          893.497,
          896.942,
          900.407,
          903.892,
          907.397,
          910.923,
          914.47,
          918.037,
          921.625,
          925.234,
          928.864,
          932.516,
          936.19,
          939.885,
          943.602,
          947.341,
          951.102,
          954.886,
          958.693,
          962.522,
          966.374,
          970.25,
          974.148,
          978.071,
          982.017,
          985.987,
          989.981,
          994.0,
          998.043
        ],
        [
          0.4456,
          0.20203,
          0.15889,
          0.15474,
          0.14278,
          0.34289,
          0.15612,
          0.06026,
          0.076481,
          0.012392,
          0.20165,
          -0.036336,
          0.14904,
          0.2701,
          0.29398,
          0.2352,
          0.25354,
          0.093831,
          0.061257,
          0.14532,
          0.016406,
          0.10579,
          0.12449,
          0.15697,
          0.12337,
          0.19865,
          0.36504,
          0.19417,
          0.11011,
          0.20697,
          -0.053387,
          0.057828,
          0.10387,
          0.076101,
          0.17361,
          0.1873,
          0.14398,
          0.17539,
          0.18722,
          0.15806,
          0.23737,
          0.38031,
          0.16635,
          0.26611,
          0.25758,
          0.41733,
          0.25587,
          0.095555,
          0.163,
          0.18757,
          0.38068,
          0.19253,
          0.22284,
          0.20477,
          0.2116,
          0.25472,
          0.27296,
          0.28296,
          0.18595,
          0.24085,
          0.18542,
          -0.029859,
          0.37672,
          0.08721,
          0.12581,
          0.095722,
          0.05785,
          0.14295,
          0.1275,
          0.15432,
          0.19133,
          0.061019,
          0.041856,
          0.15889,
          0.16697,
          0.18423,
          0.17176,
          0.50774,
          0.27232,
          0.15754,
          0.024647,
          0.084547,
          0.074263,
          0.16732,
          0.34918,
          0.33448,
          0.50745,
          0.46525,
          0.19684,
          -0.015041,
          -0.027456,
          -0.0078654,
          0.017479,
          0.17439,
          0.14666,
          0.19232,
          0.27807,
          0.2569,
          0.11076,
          0.25335,
          0.23774,
          0.43482,
          0.54594,
          0.57848,
          0.59202,
          0.60502,
          0.60972,
          0.54675,
          0.46429,
          0.42343,
          0.58323,
          0.53561,
          0.51133,
          0.50449,
          0.4303,
          0.30611,
          0.3714,
          0.38865,
          0.41579,
          0.47544,
          0.34132,
          0.35282,
          0.4427,
          0.361,
          0.2355,
          0.2887,
          0.3599,
          0.42502,
          0.42238,
          0.44865,
          0.5074,
          0.53201,
          0.42734,
          0.34253,
          0.25073,
          0.22402,
          0.28193,
          0.26762,
          0.15674,
          0.21736,
          0.33297,
          0.4134,
          0.3887,
          0.29774,
          0.25596,
          0.023081,
          0.24009,
          0.28037,
          0.32306,
          0.084697,
          0.20166,
          0.24919,
          0.38196,
          0.32253,
          0.30767,
          0.043778,
          0.27622,
          0.30158,
          0.40942,
          0.32402,
          0.32872,
          0.14336,
          0.034444,
          0.074283,
          0.099305,
          0.19815,
          0.18566,
          0.16327,
          0.16958,
          0.17419,
          0.12557,
          0.09503,
          0.22179,
          0.23288,
          0.22525,
          0.23027,
          0.26321,
          0.23348,
          0.19179,
          0.20873,
          0.23297,
          0.21074,
          0.17637,
          0.16942,
          0.15004,
          0.12347,
          0.10417,
          0.16771,
          0.17267,
          0.10317,
          0.21196,
          0.23298,
          0.32991,
          0.37919,
          0.38985,
          0.38616,
          0.42972,
          0.52903,
          0.42601,
          0.34674,
          0.34974,
          0.37576,
          0.3432,
          0.25865,
          0.25547,
          0.28487,
          0.32283,
          0.31623,
          0.30461,
          0.29615,
          0.40903,
          0.46163,
          0.2395,
          0.27955,
          0.30345,
          0.28079,
          0.026754,
          0.23346,
          0.22632,
          0.24563,
          0.24849,
          0.028758,
          0.25114,
          0.24981,
          0.2792,
          0.24744,
          0.26565,
          0.26232,
          0.25679,
          0.25603,
          0.016953,
          0.22586,
          0.23651,
          0.21943,
          0.17927,
          0.18739,
          0.19744,
          0.19063,
          0.012461,
          0.090738,
          0.059741,
          0.013941,
          0.05941,
          0.073769,
          0.018844,
          0.07083,
          0.074511,
          0.060649,
          0.11429,
          0.099328,
          0.07925,
          0.06652,
          0.07048,
          0.018368,
          0.059506,
          0.056121,
          0.058099,
          0.084737,
          0.097799,
          0.068824,
          0.051029,
          0.047585,
          0.022331,
          0.060452,
          0.039543,
          0.065839,
          0.05461,
          0.042841,
          0.041141,
          0.052273,
          0.055446,
          0.010119,
          0.042611,
          0.013912,
          0.051474,
          0.0078575,
          0.049733,
          0.040099,
          0.0097391,
          0.047836,
          0.053034,
          0.049275,
          0.039411,
          0.022668,
          0.081022,
          0.017266,
          0.075463,
          0.078477,
          0.07093,
          0.0090489,
          0.054038,
          0.061538,
          0.056486,
          0.062384,
          0.051308,
          0.0040324,
          0.056834,
          0.059888,
          0.044932,
          0.0061001,
          0.039312,
          0.033975,
          0.035594,
          0.022126,
          0.038098,
          0.013585,
          0.040913,
          0.041403,
          0.013129,
          0.029582,
          0.0065954,
          0.044338,
          0.011293,
          0.035192,
          0.043041,
          0.0054108,
          0.039678,
          0.045269,
          0.043396,
          0.036553,
          0.0056222,
          0.033499,
          0.009812,
          0.041672,
          0.012207,
          0.038259,
          0.0091308,
          0.04958,
          0.048234,
          0.04832,
          0.048858,
          0.048462,
          0.0087398,
          0.03956,
          0.03759,
          0.045864,
          0.064656,
          0.06538,
          0.058567,
          0.065511,
          0.019559,
          0.089069,
          0.083934,
          0.069986,
          0.0808,
          0.014846,
          0.085017,
          0.10601,
          0.13158,
          0.15921,
          0.14131,
          0.1777,
          0.16037,
          0.13788,
          0.17149,
          0.12343,
          0.089168,
          0.16119,
          0.13909,
          0.041315,
          0.097994,
          0.17305,
          0.26529,
          0.38777,
          0.59566,
          0.73919,
          0.68084,
          0.52996,
          0.32788,
          0.17869,
          0.099097,
          0.052147,
          0.063437,
          0.059774,
          0.069653,
          0.080628,
          0.061262,
          0.11916,
          0.19363,
          0.14406,
          0.10091,
          0.047149,
          0.052283,
          0.061619,
          0.054553,
          0.028449,
          0.014584,
          0.022492,
          0.014087,
          0.010924,
          0.0080835,
          0.0088588,
          0.011203,
          0.015041,
          0.0099451,
          0.0014136,
          0.0017397,
          0.018687,
          0.0017353,
          0.023068,
          0.065219,
          0.042448,
          0.10918,
          0.077874,
          0.0568,
          0.11184,
          0.08319,
          0.042054,
          0.017502,
          0.019089,
          0.023894,
          0.035092,
          0.061257,
          0.077556,
          0.045196,
          0.043051,
          0.043116,
          0.063209,
          0.063554,
          0.014889,
          0.011564,
          -0.0035777,
          -0.0036922,
          0.011704,
          0.0064164,
          0.015349,
          0.023093,
          0.016778,
          0.014117,
          0.011657,
          0.00072864,
          0.00058512,
          0.013207,
          0.0037648,
          0.017056,
          0.0043129,
          0.011876,
          0.011728,
          0.033275,
          0.024594,
          0.037836,
          0.016619,
          0.038851,
          0.028507,
          0.047595,
          0.015652,
          0.030084,
          0.0081847,
          0.028672,
          0.01675,
          0.011191,
          0.033775,
          0.030611,
          0.013599,
          0.025672,
          0.0036723,
          0.025209,
          0.023589,
          0.014278,
          0.027884,
          0.0063349,
          0.020291,
          0.009614,
          0.026827,
          0.028692,
          0.0065257,
          0.036528,
          0.031326,
          0.033671,
          0.02656,
          0.012397,
          0.032368,
          0.037536,
          0.016856,
          0.0319,
          0.027491,
          0.011392,
          0.034459,
          0.038024,
          0.022012,
          0.044482,
          0.04338,
          0.046847,
          0.035326,
          0.031897,
          0.027905,
          0.0064408,
          0.028635,
          0.0072258,
          0.029139,
          0.030079,
          0.0052386,
          0.0062048,
          0.037211,
          0.04533,
          0.033646,
          0.051064,
          0.04178,
          0.010878,
          0.029326,
          0.023635,
          0.050465,
          0.013619,
          0.051858,
          0.046354,
          0.07974,
          0.095051,
          0.077453,
          0.11355,
          0.07254,
          0.11502,
          0.11796,
          0.080864,
          0.026951,
          0.079584,
          0.077342,
          0.03989,
          0.071155,
          0.068895,
          0.041321,
          0.078952,
          0.075614,
          0.054542,
          0.048162,
          0.049291,
          0.050502,
          0.049727,
          0.02493,
          0.068731,
          0.11198,
          0.22291,
          0.37734,
          0.52905,
          0.62169,
          0.46805,
          0.28151,
          0.14813,
          0.084863,
          0.057073,
          0.043672,
          0.032731,
          0.014118,
          0.022942,
          0.014775,
          0.024125,
          0.026172,
          0.030337,
          0.032248,
          0.02442,
          0.03611,
          0.042731,
          0.043754,
          0.049637,
          0.055225,
          0.094842,
          0.070304,
          0.044773,
          0.027106,
          0.040544,
          0.038877,
          0.024367,
          0.035808,
          0.041751,
          0.039007,
          0.015135,
          0.040354,
          0.042631,
          0.03052,
          0.04747,
          0.034773,
          0.057784,
          0.071539,
          0.030268,
          0.051187,
          0.045595,
          0.033916,
          0.071359,
          0.076047,
          0.062511,
          0.057601,
          0.020634,
          0.033112,
          0.022068,
          0.014292,
          0.031256,
          0.047951,
          0.061246,
          0.060846,
          0.050587,
          0.040085,
          0.012336,
          0.018485,
          0.016077,
          0.017322,
          0.023048,
          0.018257,
          0.0097472,
          0.0059831,
          0.010338,
          0.01856,
          0.014772,
          0.033732,
          0.032021,
          0.013636,
          0.022708,
          0.019769,
          0.021379,
          0.012258,
          0.026429,
          0.018164,
          0.013297,
          0.005689,
          0.025787,
          0.038341,
          0.029441,
          0.030741,
          0.031178,
          0.02216,
          0.022592,
          0.012088,
          0.021621,
          0.022707,
          0.012735,
          0.028985,
          0.025452,
          0.014143,
          0.0064306,
          0.0076592,
          0.011726,
          0.021853,
          0.019654,
          0.02879,
          0.0427,
          0.055877,
          0.061348,
          0.055663,
          0.041551,
          0.034087,
          0.027722,
          0.017556,
          0.01143,
          0.005371,
          0.023921,
          0.020511,
          0.020997,
          0.020869,
          0.01605,
          0.014273,
          0.0074751,
          0.013258,
          0.014661,
          0.017945,
          0.024997,
          0.024873,
          0.019916,
          0.014637,
          0.018887,
          0.0053056,
          0.01853,
          0.016357,
          0.0077679,
          0.024291,
          0.012106,
          0.028265,
          0.031654,
          0.042034,
          0.034471,
          0.040781,
          0.032766,
          0.034966,
          0.028886,
          0.063944,
          0.057073,
          0.038648,
          0.037376,
          0.045431,
          0.05237,
          0.040334,
          0.012921,
          0.026308,
          0.013695,
          0.027196,
          0.02404,
          0.024483,
          0.012139,
          0.03464,
          0.041289,
          0.019546,
          0.06094,
          0.063397,
          0.049837,
          0.03272,
          0.033215,
          0.022159,
          0.035059,
          0.029998,
          0.027588,
          0.02714,
          0.024134,
          0.0098567,
          0.024755,
          0.024009,
          0.010854,
          0.02158,
          0.01095,
          0.033235,
          0.033183,
          0.022972,
          0.012215,
          0.012698,
          0.014033,
          0.0064005,
          0.014416,
          0.01971,
          0.010577,
          0.026238,
          0.021261,
          0.014555,
          0.013372,
          0.011971,
          0.020677,
          0.02568,
          0.026034,
          0.018268,
          0.026351,
          0.019521,
          0.005186,
          0.011938,
          0.010596,
          0.0093848,
          0.008356,
          0.016885,
          0.011447,
          0.031242,
          0.022399,
          0.01613,
          0.01631,
          0.012673,
          0.0067201,
          0.0075899,
          0.0090993,
          0.012354,
          0.012636,
          0.015936,
          0.015017,
          0.04133,
          0.035807,
          0.024413,
          0.015237,
          0.0096628,
          0.010192,
          0.012563,
          0.012901,
          0.02178,
          0.021037,
          0.020696,
          0.022033,
          0.02496,
          0.030674,
          0.025053,
          0.059424,
          0.056383,
          0.040039,
          0.026768,
          0.02397,
          0.024695,
          0.012156,
          0.028689,
          0.029069,
          0.025443,
          0.028967,
          0.044537,
          0.028338,
          0.063093,
          0.069753,
          0.069473,
          0.056845,
          0.054142,
          0.037648,
          0.052786,
          0.043794,
          0.034937,
          0.031921,
          0.031685,
          0.030665,
          0.03658,
          0.058819,
          0.092134,
          0.14053,
          0.22758,
          0.31861,
          0.32477,
          0.24271,
          0.15645,
          0.11533,
          0.067022,
          0.091843,
          0.073727,
          0.04178,
          0.018158,
          0.014703,
          0.0093626,
          0.00896,
          0.0071085,
          0.0094749,
          0.012495,
          0.014896,
          0.011822,
          0.020525,
          0.030888,
          0.070333,
          0.13859,
          0.19623,
          0.20478,
          0.16809,
          0.1189,
          0.08016,
          0.070542,
          0.067127,
          0.077718,
          0.089358,
          0.077046,
          0.051915,
          0.024352,
          0.019534,
          0.017017,
          0.0056241,
          0.022077,
          0.010505,
          0.033912,
          0.035501,
          0.021825,
          0.023152,
          0.010536,
          0.011307,
          0.011697,
          0.010722,
          0.015241,
          0.014376,
          0.011835,
          0.011951,
          0.005462,
          0.0059341,
          0.0098223,
          0.011429,
          0.022904,
          0.038171,
          0.038427,
          0.048835,
          0.051506,
          0.050839,
          0.052054,
          0.042606,
          0.046984,
          0.047923,
          0.050509,
          0.042831,
          0.040175,
          0.047603,
          0.056149,
          0.046828,
          0.039174,
          0.028046,
          0.032763,
          0.045797,
          0.053569,
          0.059667,
          0.079937,
          0.087223,
          0.074475,
          0.059518,
          0.049098,
          0.028053,
          0.022056,
          0.015223,
          0.013873,
          0.020359,
          0.02628,
          0.033158,
          0.034548,
          0.024154,
          0.01429,
          0.010571,
          0.010168,
          0.0067716,
          0.0071979,
          0.0084481,
          0.0074978,
          0.010727,
          0.0088306,
          0.010083,
          0.016411,
          0.015901,
          0.014442,
          0.012497,
          0.013029,
          0.017721,
          0.017006,
          0.031459,
          0.046971,
          0.042977,
          0.025276,
          0.011016,
          0.010029,
          0.010442,
          0.010964,
          0.01138,
          0.011425,
          0.012398,
          0.015494,
          0.016421,
          0.020016,
          0.021824,
          0.026417,
          0.0366,
          0.041249,
          0.031452,
          0.019753,
          0.01693,
          0.017106,
          0.018456,
          0.026852,
          0.028556,
          0.022834,
          0.018258,
          0.014361,
          0.015283,
          0.017091,
          0.020222,
          0.029268,
          0.036996,
          0.039987,
          0.03902,
          0.034223,
          0.028449,
          0.011923,
          0.0094098,
          0.0067131,
          0.0016778,
          0.0050304,
          0.0068017,
          0.006628,
          0.0024277,
          0.0071586,
          0.0076057,
          0.0097804,
          0.014259,
          0.024291,
          0.02882,
          0.033889,
          0.036636,
          0.026448,
          0.020768,
          0.019979,
          0.018707,
          0.022523,
          0.023701,
          0.020662,
          0.023329,
          0.024558,
          0.0265,
          0.030378,
          0.035789,
          0.031299,
          0.020076,
          0.010178,
          0.0085245,
          0.010442,
          0.011416,
          0.029331,
          0.042584,
          0.044437,
          0.030556,
          0.01848,
          0.012593,
          0.014076,
          0.018656,
          0.019547,
          0.022389,
          0.019075,
          0.025782,
          0.027179,
          0.020588,
          0.018756,
          0.02282,
          0.024028,
          0.03182,
          0.035908,
          0.036725,
          0.036121,
          0.030697,
          0.01861,
          0.028486,
          0.030366,
          0.025452,
          0.024932,
          0.028686,
          0.031485,
          0.032164,
          0.027582,
          0.018164,
          0.017009,
          0.024337,
          0.036827,
          0.044632,
          0.03992,
          0.032984,
          0.022493,
          0.015224,
          0.017897,
          0.021232,
          0.017246,
          0.010184,
          0.0091328,
          0.0087938,
          0.011984,
          0.0091462,
          0.0092608,
          0.009357,
          0.0099831,
          0.01346,
          0.016708,
          0.019794,
          0.018875,
          0.01822,
          0.027253,
          0.041537,
          0.046348,
          0.038954,
          0.039676,
          0.03431,
          0.019776,
          0.023404,
          0.040449,
          0.052193,
          0.051218,
          0.061537,
          0.069677,
          0.061863,
          0.031272,
          0.024825,
          0.0177,
          0.0058177,
          0.010296,
          0.011332,
          0.016573,
          0.023626,
          0.028481,
          0.033992,
          0.02686,
          0.022076,
          0.024051,
          0.028262,
          0.024585,
          0.016077,
          0.01315,
          0.013196,
          0.013661,
          0.011875,
          0.0091329,
          0.0082195,
          0.0063965,
          0.0090286,
          0.011669,
          0.01734,
          0.013896,
          0.013474,
          0.010711,
          0.010037,
          0.0093215,
          0.011414,
          0.011879,
          0.013612,
          0.020028,
          0.028177,
          0.029051,
          0.0223,
          0.021188,
          0.022487,
          0.026669,
          0.035479,
          0.048135,
          0.061544,
          0.072821,
          0.08547,
          0.088584,
          0.081552,
          0.098913,
          0.1272,
          0.12527,
          0.082961,
          0.046326,
          0.024267,
          0.016968,
          0.017209,
          0.02255,
          0.02496,
          0.030669,
          0.034918,
          0.042996,
          0.043762,
          0.044989,
          0.048803,
          0.047585,
          0.056417,
          0.054103,
          0.041765,
          0.027342,
          0.023912,
          0.019595,
          0.019321,
          0.024484,
          0.017803,
          0.022039,
          0.033075,
          0.028861,
          0.021374,
          0.013929,
          0.0088277,
          0.013713,
          0.016065,
          0.014452,
          0.01276,
          0.019639,
          0.021336,
          0.014386,
          0.0097357,
          0.0087903,
          0.0075341,
          0.013958,
          0.016588,
          0.022202,
          0.026574,
          0.030454,
          0.043721,
          0.057817,
          0.078138,
          0.10188,
          0.12615,
          0.12527,
          0.089876,
          0.051288,
          0.022775,
          0.018497,
          0.025745,
          0.02653,
          0.012736,
          0.018421,
          0.020439,
          0.022449,
          0.022704,
          0.015879,
          0.013459,
          0.017481,
          0.022593,
          0.030946,
          0.044934,
          0.059077,
          0.063149,
          0.054825,
          0.046366,
          0.03894,
          0.035665,
          0.0395,
          0.047998,
          0.04255,
          0.031983,
          0.022464,
          0.030069,
          0.024427,
          0.015931,
          0.017073,
          0.021897,
          0.02194,
          0.024487,
          0.030608,
          0.030424,
          0.031135,
          0.027098,
          0.020315,
          0.024598,
          0.040522,
          0.042633,
          0.045115,
          0.024407,
          0.025021,
          0.027409,
          0.018056,
          0.016667,
          0.0072601,
          0.0026355,
          0.0096799,
          0.0045965,
          0.011982,
          0.020149,
          0.0073372,
          0.002858,
          0.010441,
          0.016882,
          0.017601,
          0.015438,
          0.01806,
          0.028934,
          0.036483,
          0.02618,
          0.015544,
          0.0096846,
          0.0027011,
          0.016849,
          0.0078655,
          0.01764,
          0.014666,
          0.015729,
          0.019854,
          0.034501,
          0.025312,
          0.018879,
          0.025962,
          0.024136,
          0.0309,
          0.013758,
          0.0039771,
          0.0051833,
          0.033781,
          0.011991,
          0.017209,
          0.023977,
          0.012763,
          0.01512,
          0.034444,
          0.022214,
          0.011443,
          0.0089296,
          0.012848,
          0.022076,
          0.01026,
          0.011856,
          0.01168,
          0.025349,
          0.024492,
          0.040256,
          0.049176,
          0.059862,
          0.063863,
          0.058701,
          0.025507,
          0.022399,
          0.012122,
          0.023435,
          0.022116,
          0.0177,
          0.035295,
          0.026939,
          0.032893,
          0.028721,
          0.040616,
          0.051093,
          0.034682,
          0.038525,
          0.05967,
          0.050738,
          0.057331,
          0.071505,
          0.082405,
          0.091926,
          0.054823,
          0.03859,
          0.047913,
          0.037848,
          0.033683,
          0.032173,
          0.019264,
          0.027832,
          0.01731,
          0.033817,
          0.021163,
          0.023154,
          0.012282,
          0.0022515,
          -0.0014465,
          -0.0014484,
          -0.005664,
          -0.0038733,
          0.0016126,
          0.019467,
          0.015397,
          0.0211,
          0.014418,
          0.017247,
          0.0303,
          0.035914,
          0.036288,
          0.027602,
          0.019145,
          0.0025278,
          0.0099948,
          0.0079198,
          0.0033799,
          0.0050859,
          0.011185,
          0.013202,
          0.0087227,
          0.0044483,
          0.014289,
          0.01431,
          0.027216,
          0.019094,
          0.024033,
          0.021508,
          0.026831,
          0.042953,
          0.05358,
          0.069125,
          0.050574,
          0.053502,
          0.011726,
          0.0060285,
          0.0026518,
          0.0055808,
          0.0010546,
          0.0016988,
          0.0037461,
          0.00042224,
          0.0088518,
          0.012429,
          0.020045,
          0.014754,
          0.01464,
          0.0151,
          0.027959,
          0.046564,
          0.025463,
          0.03023,
          0.015027,
          0.010625,
          0.014261,
          0.016021,
          0.030447,
          0.020358,
          0.021279,
          0.016744,
          0.030139,
          0.045806,
          0.039709,
          0.026324,
          0.022284,
          0.041514,
          0.025273,
          0.014132,
          0.027884,
          0.021781,
          0.018394,
          0.03524,
          0.024424,
          0.021677,
          0.024491,
          0.033303,
          0.025114,
          0.020733,
          0.023319,
          0.017821,
          0.054925,
          0.03969,
          0.049265,
          0.045874,
          0.019496,
          0.019751,
          0.039332,
          0.023253,
          0.022558,
          0.026893,
          0.013991,
          0.028056,
          0.015773,
          0.0085523,
          0.012541,
          0.015615,
          0.019146,
          0.025345,
          0.034431,
          0.019227,
          0.014201,
          0.0012519,
          0.0089238,
          0.013603,
          0.012307,
          0.0092531,
          0.011725,
          0.009873,
          0.0076211,
          0.0069368,
          0.011946,
          0.0085353,
          0.018132,
          0.027691,
          0.008047,
          0.012409,
          0.013472,
          0.022128,
          0.01144,
          0.0041622,
          0.016352,
          0.0067739,
          0.013318,
          0.0090368,
          0.0252,
          0.02954,
          0.026806,
          0.038522,
          0.01597,
          0.015013,
          0.033646,
          0.016,
          0.0042256,
          0.0062241,
          0.01749,
          0.0024377,
          -0.0030008,
          0.0044855,
          0.0050437,
          0.00085435,
          0.0042073,
          0.021141,
          0.020427,
          0.0015303,
          0.0059544,
          0.010816,
          0.0098187,
          0.011541,
          0.016328,
          0.014001,
          0.0054269,
          -0.004548,
          -0.0028109,
          0.0009796,
          0.00022715,
          0.014719,
          0.0060828,
          0.01148,
          0.01055,
          0.0054742,
          0.0105,
          0.026071,
          0.01917,
          0.030417,
          0.016201,
          0.015921,
          0.024436,
          0.027572,
          0.022604,
          0.019495,
          0.023968,
          -0.0011341,
          0.01051,
          0.006633,
          0.012593,
          0.014454,
          0.027465,
          0.0185,
          0.0081838,
          0.021241,
          0.0092985,
          -0.0032263,
          0.012712,
          0.016076,
          0.020398,
          0.020088,
          0.013829,
          -0.0077893,
          -0.010614,
          -0.011571,
          -0.018593,
          -0.0091293,
          -0.0026401,
          -0.0068217,
          -0.014536,
          0.00076158,
          0.0039441,
          -0.007281,
          -0.0054084,
          0.0074635,
          0.0056795,
          0.0073813,
          0.020291,
          0.0098605,
          0.010875,
          0.0061786,
          0.002163,
          0.014502,
          0.013994,
          0.010379,
          0.004232,
          0.0063382,
          0.0097808,
          0.0067795,
          0.013458,
          0.035959,
          0.028476,
          0.032086,
          0.026036,
          0.031889,
          0.02924,
          0.020555,
          0.035936,
          0.025558,
          0.030085,
          0.022405,
          0.018614,
          0.032886,
          0.023071,
          0.015655,
          0.010566,
          0.014657,
          0.015669,
          0.015553,
          0.012808,
          0.029551,
          0.026155,
          0.016051,
          0.032707,
          0.019714,
          0.0080158,
          0.0035629,
          0.011342,
          0.015576,
          0.10729,
          0.011707,
          0.015724,
          0.011131,
          0.01222,
          0.018187,
          0.017845,
          0.0134,
          0.014695,
          0.0092962,
          0.015391,
          0.018301,
          0.011426,
          -0.013243,
          -0.029002,
          0.029567,
          0.023484,
          0.016669,
          0.040911,
          0.05356,
          0.014691,
          0.010899,
          0.0088018,
          0.013656,
          0.012257,
          0.010993,
          0.012938,
          0.014903,
          0.011665,
          -0.00085868,
          -0.018959,
          0.0051375,
          0.018982,
          0.018923,
          0.041668,
          0.012307,
          0.00029908,
          -0.0027465,
          0.0038145,
          0.021889,
          0.016756,
          0.012927,
          0.0097191,
          0.013546,
          0.0096286,
          -0.015981,
          0.0093677,
          0.0063564,
          -0.0083718,
          0.00088978,
          0.0064174,
          0.012518,
          0.0047004,
          0.012568,
          0.0027821,
          0.0094474,
          0.02769,
          0.0071161,
          -0.0032417,
          0.0041153,
          0.0075395,
          0.0072165,
          -0.0022089,
          0.02158,
          -0.0010592,
          0.013023,
          0.010556,
          0.0079384,
          0.024099,
          0.0074367,
          0.012351,
          0.0087418,
          0.0081902,
          0.010105,
          0.043925,
          0.029867,
          0.011912,
          0.012818,
          0.036426,
          0.026344,
          0.043282,
          0.030089,
          0.028547,
          0.015382,
          0.01412,
          0.029419,
          0.014375,
          0.011671,
          0.010334,
          0.010894,
          0.024849,
          0.015711,
          0.036543,
          0.021031,
          0.017485,
          0.012972,
          0.012079,
          0.014316,
          0.011952,
          0.0068457,
          0.01183,
          0.010919,
          0.0084479,
          0.01761,
          0.012542,
          -0.0011956,
          0.0053396,
          0.020654,
          -0.011511,
          0.0020712,
          -0.0028828,
          0.0044213,
          0.027378,
          0.01765,
          -0.0018612,
          0.014633,
          0.0054041,
          0.010566,
          0.044556,
          0.026396,
          0.053754,
          0.085743,
          0.045648,
          0.028841,
          0.087958,
          0.038017,
          0.027863,
          0.04217,
          0.024439,
          0.023758,
          0.015301,
          0.011335,
          0.015951,
          0.034397,
          0.042822,
          0.02058,
          0.011664,
          0.012895,
          0.021864,
          0.025587,
          0.005267,
          0.012713,
          0.0077642,
          0.016718,
          -0.00085179,
          0.0036098,
          0.0050794,
          0.0017467,
          0.0088506,
          0.025339,
          0.0039339,
          0.0030287,
          0.0041006,
          0.0087619,
          0.0034544,
          0.013076,
          0.0061825,
          0.0090604,
          -0.0010245,
          -0.0026212,
          -0.00049482,
          0.014889,
          0.028027,
          0.016073,
          0.016176,
          -0.0013271,
          0.0078754,
          0.0089979,
          0.011887,
          -0.020598,
          -0.013061,
          0.006652,
          -0.0031241,
          0.0043168,
          0.0054794,
          0.0080757,
          0.019499,
          0.038105,
          -0.0033035,
          0.012636,
          0.0088011,
          0.0066018,
          -0.023668,
          0.013857,
          0.0068516,
          -0.0090839,
          -0.0032746,
          -0.0031681,
          0.0041815,
          0.0053042,
          0.012907
        ],
        [
          117.27,
          235.99,
          302.63,
          306.44,
          335.68,
          145.93,
          284.97,
          714.16,
          572.41,
          3545.21,
          221.55,
          1071.89,
          271.41,
          153.78,
          148.12,
          176.17,
          157.82,
          395.85,
          621.41,
          268.89,
          2135.79,
          340.3,
          298.74,
          241.04,
          281.91,
          181.09,
          109.7,
          187.67,
          295.48,
          166.83,
          605.02,
          554.35,
          303.96,
          419.39,
          193.7,
          172.56,
          217.17,
          184.78,
          171.22,
          190.47,
          136.33,
          91.18,
          173.53,
          120.68,
          122.12,
          77.24,
          117.89,
          293.76,
          171.33,
          154.02,
          84.06,
          141.91,
          130.65,
          136.47,
          127.14,
          112.51,
          101.17,
          98.08,
          141.13,
          109.86,
          139.29,
          608.58,
          57.8,
          797.9,
          615.66,
          797.6,
          1494.18,
          565.67,
          457.86,
          421.9,
          309.14,
          1094.12,
          1510.35,
          423.74,
          368.73,
          321.15,
          302.91,
          48.89,
          188.81,
          451.72,
          2489.21,
          578.43,
          816.16,
          282.84,
          146.76,
          174.68,
          93.65,
          88.73,
          218.77,
          2883.92,
          1280.0,
          5524.68,
          2411.95,
          207.0,
          281.62,
          226.08,
          183.58,
          168.98,
          121.57,
          121.3,
          165.36,
          98.95,
          83.91,
          85.28,
          83.36,
          83.68,
          90.57,
          85.29,
          96.47,
          87.84,
          86.38,
          80.02,
          83.57,
          83.48,
          82.06,
          105.61,
          71.58,
          91.62,
          83.52,
          58.75,
          97.12,
          77.15,
          89.15,
          87.77,
          115.28,
          115.35,
          80.65,
          71.89,
          73.45,
          74.32,
          77.2,
          53.59,
          83.17,
          90.43,
          88.84,
          145.25,
          83.59,
          87.86,
          216.41,
          163.99,
          103.33,
          81.23,
          71.46,
          84.67,
          100.92,
          247.17,
          99.95,
          84.58,
          75.86,
          83.63,
          141.14,
          75.88,
          67.96,
          77.75,
          84.08,
          121.62,
          83.18,
          72.02,
          53.06,
          64.11,
          48.59,
          123.17,
          504.79,
          66.29,
          174.41,
          84.53,
          117.84,
          82.73,
          101.05,
          95.82,
          109.69,
          173.99,
          70.86,
          72.65,
          77.91,
          85.34,
          88.21,
          70.34,
          104.74,
          97.87,
          85.22,
          78.51,
          115.29,
          109.63,
          75.44,
          117.94,
          147.7,
          108.47,
          88.64,
          47.95,
          81.7,
          77.36,
          78.76,
          70.53,
          64.21,
          63.32,
          66.66,
          69.89,
          67.6,
          63.51,
          74.55,
          79.64,
          67.98,
          76.86,
          74.03,
          61.96,
          53.36,
          46.32,
          51.09,
          62.86,
          58.09,
          57.18,
          61.91,
          83.57,
          88.42,
          87.06,
          105.04,
          92.0,
          89.44,
          88.15,
          88.29,
          94.42,
          76.33,
          80.36,
          68.28,
          75.42,
          76.7,
          66.0,
          80.41,
          90.01,
          106.26,
          89.43,
          90.67,
          93.66,
          88.72,
          89.13,
          92.13,
          90.21,
          129.31,
          89.01,
          115.96,
          96.0,
          115.5,
          125.41,
          86.05,
          90.9,
          96.2,
          55.22,
          58.64,
          58.19,
          59.2,
          92.15,
          97.67,
          76.34,
          98.46,
          89.28,
          48.54,
          72.49,
          75.88,
          110.28,
          126.1,
          113.67,
          91.74,
          107.65,
          179.13,
          84.83,
          82.5,
          120.94,
          108.89,
          112.61,
          111.95,
          111.3,
          113.31,
          107.59,
          129.02,
          183.28,
          130.64,
          139.0,
          111.59,
          99.32,
          111.35,
          120.85,
          117.53,
          61.26,
          79.29,
          85.72,
          71.55,
          78.8,
          74.91,
          127.38,
          86.68,
          65.62,
          81.97,
          92.75,
          96.46,
          362.22,
          102.3,
          93.04,
          101.91,
          168.19,
          112.33,
          146.1,
          114.91,
          80.54,
          85.65,
          98.73,
          102.89,
          86.1,
          105.54,
          108.78,
          204.03,
          71.82,
          106.21,
          118.84,
          107.47,
          176.71,
          87.8,
          99.91,
          80.91,
          99.23,
          205.92,
          126.12,
          116.57,
          102.86,
          94.69,
          73.45,
          135.77,
          76.11,
          79.56,
          76.64,
          72.89,
          72.59,
          129.18,
          86.64,
          92.57,
          86.92,
          65.94,
          67.2,
          84.76,
          84.39,
          70.03,
          64.69,
          66.96,
          78.45,
          80.2,
          115.53,
          70.85,
          47.94,
          33.35,
          31.12,
          32.82,
          27.98,
          29.1,
          34.9,
          38.85,
          41.5,
          38.1,
          34.53,
          50.14,
          58.55,
          37.12,
          37.12,
          24.39,
          18.47,
          12.58,
          12.13,
          12.6,
          13.09,
          16.35,
          23.84,
          37.06,
          51.51,
          51.96,
          68.47,
          60.2,
          45.69,
          48.27,
          43.55,
          49.62,
          30.03,
          38.69,
          55.58,
          54.07,
          53.62,
          57.15,
          100.6,
          181.53,
          63.75,
          178.08,
          232.23,
          137.97,
          152.6,
          215.92,
          164.67,
          247.56,
          459.52,
          634.29,
          137.93,
          353.18,
          110.73,
          63.55,
          56.92,
          57.38,
          41.74,
          48.19,
          50.75,
          55.34,
          65.75,
          88.13,
          126.56,
          104.7,
          64.32,
          50.95,
          40.78,
          60.05,
          53.7,
          61.66,
          44.87,
          52.28,
          105.42,
          190.95,
          570.88,
          253.19,
          179.71,
          180.91,
          95.4,
          99.88,
          90.53,
          152.53,
          181.43,
          920.39,
          1127.92,
          163.03,
          267.45,
          125.01,
          207.8,
          172.6,
          112.42,
          69.13,
          67.54,
          62.52,
          91.49,
          60.41,
          61.19,
          49.29,
          86.63,
          73.82,
          134.07,
          76.37,
          87.9,
          109.3,
          72.84,
          68.3,
          94.31,
          80.77,
          215.3,
          92.15,
          81.46,
          85.58,
          74.26,
          158.72,
          96.78,
          113.27,
          73.81,
          88.42,
          109.71,
          56.9,
          58.69,
          61.54,
          72.38,
          88.87,
          62.13,
          52.09,
          72.59,
          62.96,
          66.72,
          106.34,
          69.02,
          52.66,
          60.39,
          47.04,
          45.23,
          44.76,
          49.75,
          54.46,
          62.24,
          133.56,
          72.05,
          112.93,
          67.35,
          61.38,
          151.32,
          135.65,
          63.8,
          45.79,
          50.44,
          53.05,
          85.7,
          70.71,
          60.58,
          56.58,
          60.99,
          79.63,
          45.19,
          45.07,
          29.38,
          31.82,
          30.57,
          28.18,
          22.27,
          47.91,
          69.68,
          62.83,
          47.78,
          60.85,
          44.96,
          33.46,
          37.57,
          41.81,
          37.93,
          38.6,
          37.81,
          52.0,
          65.06,
          60.02,
          54.96,
          56.26,
          38.28,
          31.73,
          32.7,
          26.13,
          16.84,
          11.56,
          14.19,
          11.29,
          13.47,
          22.8,
          28.58,
          35.45,
          38.27,
          52.8,
          62.66,
          62.25,
          59.66,
          58.7,
          48.3,
          40.98,
          39.54,
          43.78,
          43.05,
          33.83,
          32.87,
          29.01,
          24.36,
          26.72,
          33.15,
          43.4,
          34.04,
          45.71,
          34.78,
          43.79,
          42.09,
          37.27,
          50.92,
          43.56,
          45.98,
          32.71,
          39.76,
          41.99,
          36.68,
          31.93,
          44.98,
          36.63,
          54.01,
          56.9,
          45.67,
          43.79,
          51.16,
          43.32,
          37.2,
          41.96,
          68.47,
          53.54,
          58.39,
          44.5,
          38.93,
          32.04,
          39.16,
          32.61,
          29.29,
          48.15,
          65.85,
          54.21,
          66.24,
          58.76,
          55.06,
          90.74,
          83.34,
          105.01,
          54.51,
          59.01,
          43.44,
          35.95,
          48.23,
          58.17,
          63.85,
          61.63,
          59.46,
          47.2,
          51.34,
          67.18,
          89.41,
          55.8,
          48.12,
          34.45,
          34.61,
          40.18,
          50.84,
          46.32,
          50.06,
          53.15,
          57.87,
          58.43,
          42.51,
          38.03,
          58.41,
          116.35,
          102.24,
          70.74,
          42.19,
          53.02,
          34.99,
          26.85,
          41.3,
          24.57,
          21.81,
          30.47,
          44.02,
          60.0,
          47.79,
          68.44,
          81.24,
          61.98,
          39.81,
          42.85,
          50.5,
          52.27,
          56.78,
          64.53,
          73.8,
          55.98,
          46.29,
          36.27,
          40.73,
          36.84,
          64.57,
          52.77,
          79.18,
          61.23,
          49.07,
          62.9,
          61.38,
          51.47,
          49.84,
          33.68,
          24.4,
          27.88,
          29.77,
          29.03,
          30.75,
          32.45,
          48.97,
          38.71,
          27.27,
          29.95,
          34.21,
          36.18,
          42.32,
          47.25,
          57.08,
          47.25,
          39.45,
          39.37,
          56.07,
          50.68,
          55.18,
          64.88,
          27.42,
          52.58,
          46.81,
          35.98,
          32.46,
          32.65,
          34.22,
          42.35,
          50.86,
          64.53,
          70.51,
          73.68,
          67.86,
          47.89,
          52.28,
          40.29,
          54.95,
          47.9,
          55.36,
          28.41,
          34.6,
          39.06,
          64.9,
          46.67,
          58.35,
          61.78,
          58.72,
          45.96,
          55.42,
          45.76,
          45.04,
          47.63,
          35.5,
          44.87,
          35.57,
          29.79,
          35.51,
          42.34,
          52.57,
          67.96,
          69.53,
          57.48,
          63.21,
          54.57,
          52.13,
          38.41,
          45.39,
          35.72,
          39.61,
          39.16,
          47.81,
          56.99,
          98.37,
          62.82,
          36.69,
          61.62,
          41.68,
          31.67,
          29.86,
          21.25,
          27.46,
          40.1,
          58.93,
          56.97,
          48.07,
          34.38,
          41.03,
          32.25,
          40.92,
          43.84,
          44.54,
          47.09,
          39.2,
          36.63,
          40.17,
          50.1,
          52.97,
          56.06,
          55.57,
          35.9,
          64.68,
          67.81,
          54.13,
          43.41,
          47.68,
          21.54,
          38.4,
          25.15,
          25.24,
          24.81,
          26.47,
          20.53,
          41.33,
          46.25,
          54.09,
          55.74,
          53.11,
          53.38,
          44.85,
          40.23,
          32.88,
          15.86,
          10.37,
          9.4,
          8.37,
          11.24,
          16.33,
          23.51,
          13.66,
          40.93,
          39.62,
          20.8,
          32.85,
          35.56,
          76.1,
          60.05,
          51.51,
          77.64,
          45.12,
          39.58,
          39.92,
          40.86,
          25.71,
          38.81,
          34.37,
          22.35,
          9.04,
          9.21,
          10.61,
          12.9,
          14.54,
          17.9,
          13.76,
          14.07,
          17.19,
          15.64,
          21.22,
          45.99,
          67.66,
          57.69,
          64.8,
          42.73,
          56.89,
          45.66,
          25.61,
          37.47,
          43.12,
          66.16,
          47.45,
          42.87,
          49.86,
          38.95,
          52.02,
          36.81,
          120.76,
          83.7,
          54.73,
          35.6,
          37.63,
          28.12,
          17.16,
          19.58,
          16.37,
          16.86,
          27.54,
          22.63,
          28.57,
          34.65,
          45.08,
          35.82,
          25.76,
          30.52,
          34.45,
          24.68,
          22.03,
          22.05,
          18.7,
          27.59,
          36.06,
          41.8,
          24.33,
          32.63,
          39.92,
          36.96,
          47.89,
          22.99,
          35.55,
          45.11,
          57.48,
          50.85,
          40.34,
          35.36,
          36.01,
          30.07,
          45.86,
          47.3,
          43.66,
          97.53,
          69.1,
          52.91,
          81.78,
          46.71,
          50.09,
          65.15,
          34.23,
          31.9,
          33.57,
          36.38,
          36.55,
          45.8,
          39.39,
          26.4,
          33.61,
          42.59,
          36.04,
          46.03,
          61.34,
          47.5,
          56.85,
          39.1,
          45.0,
          53.36,
          35.47,
          39.68,
          27.06,
          29.9,
          28.58,
          58.51,
          54.28,
          35.0,
          38.29,
          54.45,
          48.8,
          50.03,
          47.05,
          32.37,
          25.79,
          36.94,
          48.53,
          66.9,
          55.37,
          35.69,
          19.38,
          28.66,
          24.84,
          16.75,
          21.97,
          25.53,
          55.44,
          52.17,
          88.62,
          359.92,
          82.52,
          67.7,
          81.47,
          255.89,
          66.28,
          77.55,
          44.4,
          62.84,
          68.99,
          58.25,
          53.4,
          58.65,
          59.5,
          69.06,
          75.75,
          59.24,
          59.53,
          62.89,
          44.22,
          22.71,
          26.07,
          56.3,
          56.13,
          40.21,
          30.45,
          32.16,
          69.11,
          54.86,
          54.39,
          67.09,
          27.18,
          21.86,
          24.64,
          30.55,
          27.7,
          42.91,
          111.25,
          55.22,
          58.96,
          41.27,
          32.9,
          53.99,
          56.75,
          34.04,
          43.19,
          24.5,
          22.78,
          18.97,
          20.99,
          32.73,
          31.04,
          24.7,
          46.92,
          23.37,
          20.79,
          24.88,
          35.68,
          41.29,
          29.96,
          25.57,
          33.76,
          35.82,
          38.96,
          43.38,
          45.55,
          49.39,
          51.12,
          49.95,
          49.02,
          46.39,
          60.26,
          47.65,
          42.29,
          47.85,
          52.19,
          58.9,
          59.29,
          50.14,
          55.92,
          64.45,
          72.25,
          52.53,
          38.59,
          51.81,
          56.74,
          57.39,
          23.65,
          18.74,
          16.55,
          20.0,
          25.47,
          39.99,
          30.64,
          26.11,
          33.63,
          46.56,
          36.54,
          30.2,
          27.08,
          25.18,
          36.08,
          25.93,
          36.46,
          134.48,
          50.77,
          57.4,
          52.36,
          42.11,
          50.47,
          62.04,
          56.38,
          45.56,
          42.91,
          49.48,
          53.89,
          58.66,
          58.62,
          48.95,
          47.23,
          51.88,
          82.49,
          66.84,
          77.58,
          56.81,
          48.76,
          45.44,
          37.52,
          38.8,
          48.23,
          50.28,
          56.55,
          48.46,
          58.72,
          57.63,
          40.6,
          25.61,
          23.5,
          28.02,
          29.62,
          34.32,
          23.5,
          23.21,
          22.28,
          16.77,
          12.8,
          11.12,
          13.25,
          14.37,
          15.75,
          20.09,
          17.01,
          17.13,
          23.99,
          25.81,
          34.14,
          50.65,
          53.0,
          49.63,
          58.94,
          60.16,
          48.39,
          25.08,
          21.91,
          42.38,
          37.64,
          45.76,
          66.03,
          68.56,
          53.07,
          34.75,
          31.82,
          33.97,
          38.26,
          34.17,
          32.39,
          34.92,
          28.51,
          44.89,
          64.12,
          71.75,
          66.7,
          46.97,
          51.88,
          81.98,
          56.13,
          43.99,
          45.59,
          68.91,
          96.91,
          83.57,
          64.56,
          39.62,
          30.47,
          27.09,
          26.48,
          32.36,
          19.61,
          13.49,
          11.19,
          13.87,
          16.14,
          21.4,
          32.09,
          37.62,
          36.66,
          49.21,
          63.04,
          51.72,
          38.12,
          32.49,
          31.7,
          32.04,
          44.31,
          55.03,
          57.58,
          40.51,
          29.52,
          26.1,
          15.98,
          14.25,
          17.34,
          33.22,
          47.47,
          59.21,
          55.05,
          44.85,
          36.65,
          51.71,
          50.75,
          48.44,
          49.12,
          64.26,
          49.03,
          50.76,
          33.59,
          34.66,
          40.79,
          32.2,
          28.24,
          32.62,
          38.66,
          29.11,
          41.61,
          32.33,
          46.05,
          37.12,
          35.83,
          49.11,
          53.87,
          62.73,
          102.66,
          284.35,
          119.43,
          161.0,
          109.79,
          73.78,
          104.0,
          265.31,
          101.6,
          44.25,
          54.35,
          85.43,
          46.06,
          32.6,
          39.94,
          51.04,
          51.65,
          91.68,
          282.55,
          67.49,
          131.92,
          65.78,
          75.89,
          59.85,
          46.13,
          33.82,
          36.01,
          50.62,
          45.28,
          38.12,
          42.46,
          62.23,
          211.97,
          227.39,
          166.28,
          66.57,
          58.45,
          49.85,
          98.51,
          79.95,
          45.18,
          42.59,
          70.47,
          91.73,
          83.22,
          57.13,
          92.46,
          79.02,
          75.72,
          51.78,
          40.8,
          26.14,
          23.12,
          24.48,
          29.28,
          36.48,
          64.33,
          70.38,
          74.94,
          67.75,
          57.67,
          52.74,
          36.19,
          62.98,
          39.84,
          45.56,
          31.46,
          27.73,
          31.75,
          35.47,
          25.94,
          29.58,
          20.71,
          18.45,
          25.76,
          46.52,
          27.24,
          52.12,
          65.35,
          74.25,
          42.12,
          44.08,
          57.16,
          61.55,
          74.95,
          96.23,
          50.59,
          69.3,
          85.63,
          630.4,
          1194.26,
          781.66,
          184.82,
          235.95,
          586.81,
          72.17,
          67.88,
          68.67,
          66.68,
          62.71,
          37.48,
          33.29,
          47.85,
          43.88,
          71.14,
          652.96,
          101.77,
          118.15,
          296.42,
          205.12,
          125.41,
          74.76,
          114.8,
          238.03,
          103.03,
          73.73,
          60.84,
          61.66,
          62.33,
          50.42,
          44.67,
          38.19,
          29.76,
          30.69,
          35.15,
          41.88,
          98.56,
          349.58,
          386.72,
          197.43,
          2149.77,
          648.26,
          413.73,
          4094.87,
          119.86,
          100.4,
          88.65,
          122.76,
          80.36,
          113.9,
          44.22,
          38.28,
          49.75,
          60.24,
          82.43,
          187.83,
          80.93,
          78.42,
          64.89,
          58.1,
          59.99,
          134.1,
          49.05,
          55.2,
          45.84,
          48.4,
          56.47,
          61.97,
          48.87,
          91.17,
          65.48,
          67.03,
          69.59,
          55.93,
          50.38,
          56.43,
          53.98,
          56.58,
          51.96,
          70.78,
          85.27,
          75.85,
          52.87,
          42.23,
          43.36,
          56.74,
          67.37,
          68.13,
          59.6,
          61.01,
          62.92,
          85.03,
          96.64,
          78.5,
          99.46,
          293.62,
          106.64,
          94.61,
          162.64,
          76.87,
          63.21,
          77.54,
          104.91,
          1046.99,
          218.66,
          166.7,
          109.08,
          142.66,
          183.95,
          138.17,
          178.02,
          197.25,
          230.79,
          176.74,
          92.84,
          78.23,
          182.99,
          167.07,
          110.44,
          89.07,
          173.62,
          333.85,
          122.48,
          213.78,
          151.6,
          157.84,
          84.08,
          76.16,
          81.69,
          62.13,
          98.06,
          217.05,
          261.35,
          384.89,
          493.3,
          258.39,
          70.56,
          603.81,
          910.08,
          342.6,
          475.73,
          1737.62,
          510.37,
          73.19,
          85.72,
          1396.17,
          243.41,
          149.51,
          162.96,
          136.93,
          169.66,
          116.53,
          295.66,
          566.71,
          828.75,
          1619.83,
          10061.69,
          173.67,
          246.31,
          219.26,
          158.24,
          402.64,
          147.09,
          64.1,
          133.21,
          56.14,
          145.08,
          100.59,
          95.1,
          94.0,
          76.56,
          85.56,
          111.64,
          2059.34,
          151.39,
          239.24,
          196.91,
          191.54,
          68.14,
          140.12,
          222.25,
          175.43,
          190.66,
          753.38,
          138.31,
          158.29,
          131.79,
          105.96,
          215.61,
          218.43,
          149.79,
          224.25,
          135.87,
          175.88,
          1026.71,
          244.73,
          199.96,
          2438.39,
          657.93,
          277.36,
          349.14,
          366.01,
          502.34,
          236.34,
          137.11,
          174.53,
          173.73,
          418.11,
          1174.7,
          127.3,
          252.58,
          175.75,
          439.7,
          396.98,
          267.49,
          248.58,
          144.51,
          74.59,
          75.87,
          99.1,
          71.25,
          85.59,
          64.97,
          121.93,
          74.74,
          73.87,
          88.02,
          122.46,
          104.27,
          91.86,
          76.26,
          117.46,
          250.85,
          120.9,
          201.75,
          199.36,
          146.88,
          95.84,
          71.29,
          116.02,
          86.3,
          98.9,
          344.38,
          515.16,
          228.04,
          122.87,
          143.36,
          167.86,
          172.93,
          259.81,
          162.54,
          157.16,
          113.22,
          223.61,
          132.2,
          331.23,
          128.17,
          176.18,
          208.86,
          253.29,
          202.54,
          77.1,
          80.25,
          116.78,
          93.45,
          118.8,
          150.46,
          269.25,
          231.84,
          148.46,
          260.76,
          179.14,
          217.42,
          127.4,
          246.59,
          2433.19,
          191.95,
          400.07,
          109.59,
          172.04,
          60.34,
          191.47,
          9688.98,
          1137.39,
          575.59,
          139.72,
          122.43,
          156.09,
          341.59,
          164.1,
          212.98,
          208.95,
          198.27,
          339.61,
          463.9,
          3422.33,
          319.46,
          246.75,
          424.76,
          168.0,
          1075.76,
          228.94,
          121.8,
          299.13,
          919.8,
          706.71,
          253.71,
          279.02,
          1034.83,
          138.6,
          1780.71,
          234.8,
          193.5,
          248.13,
          128.15,
          306.75,
          171.74,
          216.61,
          249.65,
          194.84,
          84.8,
          75.59,
          165.46,
          152.28,
          80.99,
          82.75,
          79.44,
          73.56,
          80.38,
          140.58,
          152.34,
          121.68,
          179.14,
          195.71,
          314.56,
          201.73,
          126.01,
          276.27,
          85.59,
          138.4,
          157.12,
          243.32,
          180.2,
          210.19,
          180.27,
          301.24,
          177.25,
          220.72,
          316.55,
          120.47,
          240.51,
          1652.61,
          381.74,
          143.96,
          243.6,
          1033.65,
          729.26,
          449.35,
          208.59,
          175.79,
          1259.56,
          233.33,
          378.68,
          231.48,
          85.83,
          91.76,
          72.58,
          43.06,
          98.27,
          112.83,
          62.87,
          101.92,
          127.37,
          78.86,
          110.16,
          119.17,
          192.97,
          184.54,
          154.85,
          93.71,
          82.18,
          102.83,
          178.09,
          161.65,
          145.83,
          130.83,
          414.0,
          255.61,
          264.73,
          131.64,
          3537.01,
          868.81,
          413.48,
          1334.22,
          357.51,
          128.99,
          510.4,
          667.22,
          505.53,
          367.68,
          571.6,
          161.53,
          492.87,
          391.35,
          1973.82,
          1210.5,
          6297.27,
          142.62,
          77.21,
          124.05,
          189.32,
          1524.75,
          276.27,
          379.42,
          177.3,
          245.25,
          314.68,
          345.81,
          683.27,
          678.12,
          357.99,
          380.74,
          111.94,
          107.24,
          836.61,
          231.05,
          220.89,
          291.34,
          172.82,
          143.86,
          344.97,
          517.25,
          922.42,
          1010.13,
          445.03,
          356.54,
          298.3
        ]
      ]
    }
  },
  "10058-003": {
    "reaction": {
      "0": {
        "x4_code": "(92-U-236(N,F),,SIG)",
        "0": {
          "code": [
            "92-U-236",
            [
              "N,F"
            ],
            ",,SIG"
          ],
          "type": null,
          "target": "92-U-236",
          "process": "N,F",
          "sf49": ",,SIG",
          "sf4": null,
          "sf5": null,
          "sf6": "SIG",
          "sf7": null,
          "sf8": null,
          "sf9": null
        },
        "type": null,
        "free_text": ""
      }
    },
    "extra_information": {
      "monitor": {
        "0": [
          {
            "x4_code": "(92-U-235(N,F),,SIG)",
            "free_txt": [
              " Above 100 keV, flux relative to 235U fission of",
              " Davey, Nuc.Sci.Eng. 32, 35 (1968),modified to 55 degr.",
              " Interpolation  from 1 keV to 100 keV was done",
              "  by comparison with previous measurements, see",
              "  Browne, et al., LA-4095 (1970)."
            ]
          }
        ]
      }
    },
    "common": null,
    "data": {
      "heads": [
        "EN",
        "DATA",
        "ERR-T",
        "ERR-SYS"
      ],
      "units": [
        "EV",
        "B",
        "PER-CENT",
        "PER-CENT"
      ],
      "data": [
        [
          1002.11,
          1006.2,
          1010.32,
          1014.46,
          1018.63,
          1022.83,
          1027.05,
          1031.29,
          1035.57,
          1039.87,
          1044.19,
          1048.55,
          1052.93,
          1057.34,
          1061.77,
          1066.24,
          1070.73,
          1075.25,
          1079.8,
          1084.38,
          1088.98,
          1093.62,
          1098.29,
          1102.98,
          1107.71,
          1112.47,
          1117.25,
          1122.07,
          1126.92,
          1131.81,
          1136.72,
          1141.66,
          1146.64,
          1151.65,
          1156.7,
          1161.77,
          1166.88,
          1172.03,
          1177.2,
          1182.42,
          1187.66,
          1192.95,
          1198.26,
          1203.62,
          1209.0,
          1214.43,
          1219.89,
          1225.39,
          1230.93,
          1236.5,
          1242.11,
          1247.76,
          1253.45,
          1259.18,
          1264.94,
          1270.75,
          1276.6,
          1282.49,
          1288.41,
          1294.38,
          1300.39,
          1306.45,
          1312.54,
          1318.68,
          1324.86,
          1331.08,
          1337.35,
          1343.67,
          1350.02,
          1356.43,
          1362.87,
          1369.37,
          1375.91,
          1382.5,
          1389.13,
          1395.82,
          1402.55,
          1409.33,
          1416.16,
          1423.04,
          1429.97,
          1436.95,
          1443.98,
          1451.07,
          1458.2,
          1465.39,
          1472.63,
          1479.93,
          1487.28,
          1494.69,
          1502.15,
          1509.66,
          1517.24,
          1524.87,
          1532.55,
          1540.3,
          1548.11,
          1555.97,
          1563.9,
          1571.88,
          1579.93,
          1588.04,
          1596.21,
          1604.44,
          1612.74,
          1621.1,
          1629.53,
          1638.03,
          1646.59,
          1655.22,
          1663.91,
          1672.68,
          1681.51,
          1690.42,
          1699.39,
          1708.44,
          1717.56,
          1726.75,
          1736.02,
          1745.36,
          1754.78,
          1764.27,
          1773.84,
          1783.49,
          1793.22,
          1803.03,
          1812.91,
          1822.88,
          1832.94,
          1843.07,
          1853.29,
          1863.6,
          1873.99,
          1884.47,
          1895.03,
          1905.69,
          1916.44,
          1927.27,
          1938.2,
          1949.23,
          1960.34,
          1971.56,
          1982.87,
          1994.27,
          100349.0,
          101172.0,
          102005.0,
          102849.0,
          103703.0,
          104567.0,
          105443.0,
          106329.0,
          107227.0,
          108136.0,
          109057.0,
          109989.0,
          110934.0,
          111890.0,
          112860.0,
          113841.0,
          114836.0,
          115844.0,
          116865.0,
          117900.0,
          118948.0,
          120011.0,
          121088.0,
          122179.0,
          123285.0,
          124407.0,
          125543.0,
          126696.0,
          127864.0,
          129049.0,
          130250.0,
          131468.0,
          132703.0,
          133955.0,
          135226.0,
          136514.0,
          137821.0,
          139147.0,
          140492.0,
          141857.0,
          143242.0,
          144647.0,
          146073.0,
          147520.0,
          148988.0,
          150479.0,
          151992.0,
          153528.0,
          155088.0,
          156671.0,
          158279.0,
          159912.0,
          161570.0,
          163254.0,
          164964.0,
          166702.0,
          168467.0,
          170260.0,
          172082.0,
          173934.0,
          175815.0,
          177728.0,
          179671.0,
          181647.0,
          183655.0,
          185697.0,
          187773.0,
          189885.0,
          192032.0,
          194215.0,
          196436.0,
          198696.0,
          200994.0,
          203333.0,
          205713.0,
          208134.0,
          210599.0,
          213108.0,
          215662.0,
          218262.0,
          220910.0,
          223606.0,
          226351.0,
          229148.0,
          231996.0,
          234898.0,
          237855.0,
          240868.0,
          243939.0,
          247069.0,
          250259.0,
          253512.0,
          256828.0,
          260210.0,
          263659.0,
          267178.0,
          270767.0,
          274429.0,
          278166.0,
          281979.0,
          285872.0,
          289845.0,
          293903.0,
          298046.0,
          302277.0,
          306599.0,
          311014.0,
          315525.0,
          320136.0,
          324848.0,
          329664.0,
          334589.0,
          339625.0,
          344776.0,
          350044.0,
          355435.0,
          360950.0,
          366596.0,
          372374.0,
          378291.0,
          384349.0,
          390554.0,
          396911.0,
          403424.0,
          410099.0,
          416941.0,
          423956.0,
          431149.0,
          438527.0,
          446096.0,
          453862.0,
          461833.0,
          470016.0,
          478418.0,
          487048.0,
          495914.0,
          505023.0,
          514386.0,
          524012.0,
          533910.0,
          544092.0,
          554568.0,
          565349.0,
          576448.0,
          587877.0,
          599649.0,
          611778.0,
          624280.0,
          637168.0,
          650459.0,
          664171.0,
          678321.0,
          692929.0,
          708013.0,
          723595.0,
          739697.0,
          756343.0,
          773557.0,
          791366.0,
          809797.0,
          828879.0,
          848644.0,
          869125.0,
          890356.0,
          912374.0,
          935220.0,
          958934.0,
          983562.0,
          1009150.0,
          1035750.0,
          1063420.0,
          1092210.0,
          1122190.0,
          1153410.0,
          1185960.0,
          1219910.0,
          1255340.0,
          1292330.0,
          1330980.0,
          1371390.0,
          1413670.0,
          1457940.0,
          1504320.0,
          1552940.0,
          1603970.0,
          1657550.0,
          1713860.0,
          1773090.0,
          1835450.0,
          1901150.0,
          1970450.0,
          2043610.0,
          2120920.0,
          2202700.0,
          2289300.0,
          2381110.0,
          2478570.0,
          2582120.0,
          2692310.0,
          2809710.0,
          2934950.0
        ],
        [
          0.0088595,
          0.0079742,
          -0.0075663,
          0.0093757,
          0.0082136,
          0.00038659,
          0.00035454,
          0.00106,
          -0.011768,
          0.0029026,
          -0.0093101,
          -0.0035463,
          0.0041888,
          -0.018666,
          0.0031651,
          0.015143,
          0.038082,
          0.082301,
          0.036984,
          0.026682,
          0.023468,
          0.025934,
          0.020677,
          0.019205,
          0.020154,
          0.024402,
          0.039247,
          0.036764,
          0.035253,
          0.029376,
          0.038209,
          0.023169,
          0.028077,
          0.025157,
          0.021946,
          0.028459,
          0.0013162,
          0.016232,
          0.027989,
          0.022582,
          0.018767,
          0.030992,
          0.023001,
          0.021467,
          0.0050698,
          0.0025577,
          -0.0076954,
          0.016674,
          0.0073687,
          0.0058914,
          -0.0028599,
          0.0074481,
          -0.0033268,
          -0.0059725,
          0.033772,
          0.055008,
          0.098136,
          0.13923,
          0.14337,
          0.079378,
          -0.010325,
          -0.01605,
          -0.0074698,
          0.007545,
          0.02034,
          -0.0045689,
          0.004839,
          0.0098397,
          0.013572,
          -0.00015269,
          0.0079659,
          0.0079344,
          0.015788,
          0.0075431,
          -0.0010443,
          0.009442,
          -0.0027935,
          9.6736e-05,
          0.0084074,
          0.01895,
          0.011494,
          0.0026448,
          0.010346,
          0.0044783,
          0.0052286,
          -0.0012741,
          0.0021081,
          0.00023398,
          0.0052508,
          -0.0020673,
          0.002662,
          -0.00097994,
          -0.00040064,
          -0.0033969,
          -0.00095992,
          -0.00076279,
          2.5803e-05,
          0.0020663,
          0.0066338,
          0.0059081,
          0.001247,
          0.0082202,
          0.00020562,
          -0.015184,
          0.0062373,
          0.010131,
          0.0073665,
          -0.00069402,
          0.0042546,
          0.0021274,
          0.0099448,
          0.0075453,
          0.01016,
          0.0089047,
          0.0078318,
          0.047943,
          0.0068227,
          0.0045146,
          0.012589,
          0.016552,
          0.007008,
          0.013573,
          0.0050933,
          0.013295,
          0.018715,
          0.0076266,
          0.0082822,
          0.0089989,
          0.021383,
          0.037126,
          0.037483,
          0.03795,
          0.055825,
          0.038512,
          0.040649,
          0.067138,
          0.034721,
          0.030589,
          0.051704,
          0.028136,
          0.027483,
          0.033812,
          0.060595,
          0.032665,
          0.0024149,
          0.002011,
          0.0016778,
          0.0014133,
          0.00137,
          0.0015166,
          0.0017423,
          0.0018978,
          0.0018905,
          0.0017801,
          0.0015888,
          0.0013743,
          0.0013137,
          0.0015299,
          0.0018555,
          0.0020465,
          0.002166,
          0.0023163,
          0.0023823,
          0.0022765,
          0.0021046,
          0.0019806,
          0.0018634,
          0.0018333,
          0.0021808,
          0.0026773,
          0.0025122,
          0.0020837,
          0.0021187,
          0.0022527,
          0.0021041,
          0.0017943,
          0.00154,
          0.0015568,
          0.0019341,
          0.0023648,
          0.0025135,
          0.002493,
          0.0024683,
          0.002357,
          0.0022592,
          0.0021361,
          0.0019676,
          0.0023043,
          0.0028713,
          0.002916,
          0.0025681,
          0.0025056,
          0.002997,
          0.0033861,
          0.0032803,
          0.0030186,
          0.002826,
          0.0026751,
          0.0025124,
          0.002369,
          0.0023324,
          0.0024388,
          0.002577,
          0.0026309,
          0.002606,
          0.0025602,
          0.0030004,
          0.0028561,
          0.002667,
          0.0025742,
          0.0025322,
          0.002543,
          0.0022261,
          0.0025502,
          0.0027054,
          0.0025542,
          0.0023569,
          0.0023252,
          0.0024331,
          0.0026671,
          0.0029271,
          0.0031544,
          0.003383,
          0.0035394,
          0.0037502,
          0.0040349,
          0.0041424,
          0.0038357,
          0.0033206,
          0.0029776,
          0.0028712,
          0.0027089,
          0.0028315,
          0.0029294,
          0.0031855,
          0.0036765,
          0.0043169,
          0.0048937,
          0.0052221,
          0.0052782,
          0.0052471,
          0.0053433,
          0.0057432,
          0.0062316,
          0.0060934,
          0.0051679,
          0.0043774,
          0.0043905,
          0.0051821,
          0.0061279,
          0.0068035,
          0.0073661,
          0.0079478,
          0.0083413,
          0.0084243,
          0.0083467,
          0.0083166,
          0.0084368,
          0.0086826,
          0.0089409,
          0.0091728,
          0.0094434,
          0.0097039,
          0.0099356,
          0.010549,
          0.012111,
          0.013878,
          0.014421,
          0.014647,
          0.015644,
          0.016857,
          0.017724,
          0.018397,
          0.018984,
          0.019519,
          0.020244,
          0.021492,
          0.022742,
          0.02325,
          0.023539,
          0.02453,
          0.026705,
          0.029392,
          0.031021,
          0.031573,
          0.032622,
          0.035132,
          0.038055,
          0.039584,
          0.040365,
          0.042264,
          0.04511,
          0.048646,
          0.053535,
          0.059341,
          0.06757,
          0.076194,
          0.082095,
          0.087135,
          0.093009,
          0.14631,
          0.19005,
          0.20288,
          0.21927,
          0.24866,
          0.29547,
          0.34188,
          0.37925,
          0.40726,
          0.42371,
          0.42911,
          0.43097,
          0.43774,
          0.45739,
          0.49447,
          0.53397,
          0.56254,
          0.59286,
          0.63014,
          0.66603,
          0.69878,
          0.72229,
          0.73001,
          0.7295,
          0.72303,
          0.71684,
          0.72477,
          0.74363,
          0.76232,
          0.78597,
          0.81118,
          0.8249,
          0.83863,
          0.8624,
          0.89017,
          0.92185,
          0.94542,
          0.94975,
          0.94685,
          0.95312,
          0.96045,
          0.96321,
          0.96986,
          0.97453,
          0.97058
        ],
        [
          225.75,
          382.7,
          367.07,
          267.91,
          593.61,
          4808.03,
          9284.73,
          1944.07,
          255.38,
          704.43,
          333.93,
          558.69,
          456.87,
          220.56,
          684.26,
          303.21,
          56.68,
          86.03,
          57.28,
          104.94,
          79.55,
          72.2,
          144.07,
          95.01,
          148.34,
          79.24,
          77.32,
          60.51,
          53.63,
          63.62,
          54.97,
          118.5,
          68.25,
          74.88,
          85.72,
          73.27,
          1546.57,
          113.47,
          69.54,
          83.23,
          137.19,
          93.43,
          96.4,
          87.34,
          350.44,
          837.25,
          316.95,
          173.48,
          645.79,
          590.6,
          974.89,
          246.23,
          567.09,
          422.0,
          57.12,
          52.01,
          27.64,
          30.65,
          25.45,
          97.12,
          246.59,
          165.83,
          294.81,
          263.06,
          98.88,
          468.11,
          397.23,
          244.06,
          161.83,
          11694.28,
          235.31,
          222.73,
          120.91,
          357.67,
          2409.72,
          178.45,
          1331.55,
          17338.12,
          218.84,
          94.22,
          228.32,
          655.85,
          160.14,
          655.54,
          341.68,
          2138.78,
          842.14,
          7123.44,
          509.01,
          858.22,
          593.5,
          2550.32,
          4017.96,
          832.73,
          1671.81,
          2072.73,
          99900.0,
          1224.37,
          363.66,
          272.03,
          1266.74,
          299.96,
          7731.93,
          225.62,
          290.15,
          327.71,
          222.64,
          2699.02,
          396.32,
          1149.24,
          280.42,
          235.58,
          165.9,
          179.91,
          245.01,
          219.2,
          226.73,
          492.86,
          126.1,
          106.42,
          359.26,
          118.27,
          492.81,
          142.35,
          134.44,
          223.93,
          280.48,
          202.33,
          149.86,
          70.23,
          80.21,
          60.63,
          50.66,
          76.1,
          78.5,
          60.37,
          69.87,
          75.52,
          49.94,
          74.2,
          98.52,
          76.69,
          48.96,
          50.8,
          61.48,
          86.94,
          128.29,
          153.23,
          140.27,
          140.53,
          115.75,
          107.28,
          101.3,
          96.0,
          94.31,
          95.72,
          111.93,
          88.43,
          75.47,
          63.21,
          62.58,
          69.94,
          82.8,
          94.74,
          95.0,
          115.27,
          116.81,
          102.54,
          81.49,
          72.75,
          63.86,
          64.03,
          75.27,
          76.8,
          84.74,
          92.39,
          96.61,
          99.6,
          86.81,
          80.1,
          90.65,
          88.61,
          81.92,
          90.81,
          84.67,
          80.34,
          85.17,
          82.42,
          72.46,
          68.69,
          67.41,
          55.51,
          45.98,
          45.1,
          52.76,
          60.53,
          69.1,
          65.79,
          66.63,
          67.65,
          65.69,
          70.98,
          71.86,
          71.31,
          72.3,
          75.77,
          70.72,
          69.27,
          65.53,
          67.09,
          77.21,
          76.1,
          75.24,
          64.94,
          62.84,
          63.28,
          60.23,
          62.46,
          62.04,
          52.94,
          52.06,
          43.01,
          36.07,
          31.06,
          27.81,
          27.47,
          30.29,
          35.8,
          41.25,
          43.67,
          45.79,
          58.49,
          50.41,
          48.74,
          43.88,
          35.22,
          34.56,
          40.58,
          42.17,
          39.44,
          32.54,
          25.85,
          22.1,
          23.16,
          22.71,
          34.99,
          45.06,
          50.41,
          52.67,
          50.5,
          46.45,
          39.11,
          27.9,
          20.75,
          21.8,
          26.17,
          28.34,
          28.19,
          29.88,
          32.06,
          32.6,
          33.99,
          36.89,
          38.98,
          35.79,
          25.74,
          19.5,
          25.5,
          33.82,
          33.55,
          29.19,
          27.47,
          29.62,
          32.47,
          35.26,
          39.12,
          41.92,
          42.25,
          41.39,
          38.55,
          34.3,
          32.13,
          32.94,
          34.28,
          33.53,
          31.08,
          30.76,
          32.8,
          34.62,
          35.68,
          36.14,
          36.12,
          36.56,
          37.65,
          38.21,
          39.12,
          38.82,
          35.14,
          28.62,
          20.9,
          39.28,
          42.39,
          33.53,
          27.73,
          29.19,
          34.37,
          35.47,
          33.55,
          30.37,
          27.27,
          26.99,
          29.72,
          33.27,
          34.88,
          33.15,
          31.87,
          33.6,
          35.51,
          34.75,
          32.39,
          31.04,
          31.29,
          31.71,
          31.47,
          30.98,
          29.82,
          28.5,
          28.53,
          30.51,
          32.26,
          31.3,
          28.48,
          26.11,
          25.15,
          25.92,
          27.63,
          28.8,
          28.72,
          26.78,
          23.35,
          20.44,
          19.21,
          19.1,
          20.17,
          22.79
        ],
        [
          4.8,
          4.8,
          4.8,
          4.8,
          4.8,
          4.8,
          4.8,
          4.8,
          4.8,
          4.8,
          4.8,
          4.8,
          4.8,
          4.8,
          4.8,
          4.8,
          4.8,
          4.8,
          4.8,
          4.8,
          4.8,
          4.8,
          4.8,
          4.8,
          4.8,
          4.8,
          4.8,
          4.8,
          4.8,
          4.8,
          4.8,
          4.8,
          4.8,
          4.8,
          4.8,
          4.8,
          4.8,
          4.8,
          4.8,
          4.8,
          4.8,
          4.8,
          4.8,
          4.8,
          4.8,
          4.8,
          4.8,
          4.8,
          4.8,
          4.8,
          4.8,
          4.8,
          4.8,
          4.8,
          4.8,
          4.8,
          4.8,
          4.8,
          4.8,
          4.8,
          4.8,
          4.8,
          4.8,
          4.8,
          4.8,
          4.8,
          4.8,
          4.8,
          4.8,
          4.8,
          4.8,
          4.8,
          4.8,
          4.8,
          4.8,
          4.8,
          4.8,
          4.8,
          4.8,
          4.8,
          4.8,
          4.8,
          4.8,
          4.8,
          4.8,
          4.8,
          4.8,
          4.8,
          4.8,
          4.8,
          4.8,
          4.8,
          4.8,
          4.8,
          4.8,
          4.8,
          4.8,
          4.8,
          4.8,
          4.8,
          4.8,
          4.8,
          4.8,
          4.8,
          4.8,
          4.8,
          4.8,
          4.8,
          4.8,
          4.8,
          4.8,
          4.8,
          4.8,
          4.8,
          4.8,
          4.8,
          4.8,
          4.8,
          4.8,
          4.8,
          4.8,
          4.8,
          4.8,
          4.8,
          4.8,
          4.8,
          4.8,
          4.8,
          4.8,
          4.8,
          4.8,
          4.8,
          4.8,
          4.8,
          4.8,
          4.8,
          4.8,
          4.8,
          4.8,
          4.8,
          4.8,
          4.8,
          4.8,
          4.8,
          6.1,
          6.1,
          6.1,
          6.1,
          6.1,
          6.1,
          6.1,
          6.1,
          6.1,
          6.1,
          6.1,
          6.1,
          6.1,
          6.1,
          6.1,
          6.1,
          6.1,
          6.1,
          6.1,
          6.1,
          6.1,
          6.1,
          6.1,
          6.1,
          6.1,
          6.1,
          6.1,
          6.1,
          6.1,
          6.1,
          6.1,
          6.1,
          6.1,
          6.1,
          6.1,
          6.1,
          6.1,
          6.1,
          6.1,
          6.1,
          6.1,
          6.1,
          6.1,
          6.1,
          6.1,
          6.1,
          6.1,
          6.1,
          6.1,
          6.1,
          6.1,
          6.1,
          6.1,
          6.1,
          6.1,
          6.1,
          6.1,
          6.1,
          6.1,
          6.1,
          6.1,
          6.1,
          6.1,
          6.1,
          6.1,
          6.1,
          6.1,
          6.1,
          6.1,
          6.1,
          6.1,
          6.1,
          6.1,
          6.1,
          6.1,
          6.1,
          6.1,
          6.1,
          6.1,
          6.1,
          6.1,
          6.1,
          6.1,
          6.1,
          6.1,
          6.1,
          6.1,
          6.1,
          6.1,
          6.1,
          6.1,
          6.1,
          6.1,
          6.1,
          6.1,
          6.1,
          6.1,
          6.1,
          6.1,
          6.1,
          6.1,
          6.1,
          6.1,
          6.1,
          6.1,
          6.1,
          6.1,
          6.1,
          6.1,
          6.1,
          6.1,
          6.1,
          6.1,
          6.1,
          6.1,
          6.1,
          6.1,
          6.1,
          6.1,
          6.1,
          6.1,
          6.1,
          6.1,
          6.1,
          6.1,
          6.1,
          6.1,
          6.1,
          6.1,
          6.1,
          6.1,
          6.1,
          6.1,
          6.1,
          6.1,
          6.1,
          6.1,
          6.1,
          6.1,
          6.1,
          6.1,
          6.1,
          6.1,
          6.1,
          6.1,
          6.1,
          6.1,
          6.1,
          6.1,
          6.1,
          6.1,
          6.1,
          6.1,
          6.1,
          6.1,
          6.1,
          6.1,
          6.1,
          6.1,
          6.1,
          6.1,
          6.1,
          6.1,
          6.1,
          6.1,
          6.1,
          6.1,
          6.1,
          6.1,
          6.1,
          6.1,
          6.1,
          6.1,
          6.1,
          6.1,
          6.1,
          6.1,
          6.1,
          6.1,
          6.1,
          6.1,
          6.1,
          6.1,
          6.1,
          6.1,
          6.1,
          6.1,
          6.1,
          6.1,
          6.1,
          6.1,
          6.1,
          6.1,
          6.1,
          6.1,
          6.1,
          6.1,
          6.1,
          6.1,
          6.1,
          6.1
        ]
      ]
    }
  }
}