{
  "bib": {
    "title": "Fission Cross Sections Of 242Pu",
    "authors": [
      {
        "name": "D.W.Bergen"
      },
      {
        "name": "R.R.Fullwood"
      }
    ],
    "institutes": [
      {
        "x4_code": "(1USALAS)",
        "free_txt": []
      }
    ],
    "references": {
      "0": [
        {
          "x4_code": "(J,NP/A,163,577,197103)",
          "free_txt": [],
          "publication_year": "1971"
        },
        {
          "x4_code": "(R,LA-4420,123,197906)",
          "free_txt": [],
          "publication_year": "1979"
        }
      ]
    },
    "history": [
      {
        "x4_code": "(19710408C)",
        "free_txt": []
      },
      {
        "x4_code": "(19810601A)",
        "free_txt": [
          " CONVERTED TO REACTION FORMALISM"
        ]
      },
      {
        "x4_code": "(19811217A)",
        "free_txt": [
          " MOVED ERR-ANALYS TO SUBENTRY 2."
        ]
      },
      {
        "x4_code": "(19901023A)",
        "free_txt": [
          " REFERENCE, BIB UPDATE"
        ]
      },
      {
        "x4_code": "(19990907A)",
        "free_txt": [
          " Converted to new date formalism."
        ]
      },
      {
        "x4_code": "(20101015A)",
        "free_txt": [
          " VM: BIB updates.",
          "  Correction to data set 10062.002; some data moved to",
          "  subentries 005, 006."
        ]
      }
    ]
  },
  "10062-001": {
    "extra_information": {
      "correction": {
        "0": [
          {
            "x4_code": null,
            "free_txt": [
              "Up to 200 eV, corrected for 239Pu and 241Pu content in",
              " sample using data from Petrel event.",
              " Corrected for background."
            ]
          }
        ]
      },
      "detector": {
        "0": [
          {
            "x4_code": "(SOLST)",
            "free_txt": [
              " Thin-window, fully-depleted, diffused-junction",
              "  p-n diodes, in recording mode."
            ]
          }
        ]
      },
      "inc-source": {
        "0": [
          {
            "x4_code": "(EXPLO)",
            "free_txt": [
              " Pommard underground nuclear explosion with",
              " Pb/CH2/Pb moderator to enrich low-energy spectrum."
            ]
          }
        ]
      },
      "method": {
        "0": [
          {
            "x4_code": "(TOF)",
            "free_txt": [
              " Time-of-flight. 214.43-m flight path."
            ]
          }
        ]
      },
      "sample": {
        "0": [
          {
            "x4_code": null,
            "free_txt": [
              "0.562 mg/cm2 sample. Isotopic composition:",
              " 242Pu (99.8%), 241Pu (0.098%), 240Pu (0.084%),",
              " 239Pu (0.02%), 238Pu (0.004%)"
            ]
          }
        ]
      },
      "status": {
        "0": [
          {
            "x4_code": "(APRVD)",
            "free_txt": [
              " Approved by author"
            ]
          }
        ]
      }
    }
  },
  "10062-002": {
    "reaction": {
      "0": {
        "x4_code": "(94-PU-242(N,F),,SIG)",
        "0": {
          "code": [
            "94-PU-242",
            [
              "N,F"
            ],
            ",,SIG"
          ],
          "type": null,
          "target": "94-PU-242",
          "process": "N,F",
          "sf49": ",,SIG",
          "sf4": null,
          "sf5": null,
          "sf6": "SIG",
          "sf7": null,
          "sf8": null,
          "sf9": null
        },
        "type": null,
        "free_text": ""
      }
    },
    "extra_information": {
      "err-analys": {
        "0": [
          {
            "x4_code": "(ERR-T)",
            "free_txt": [
              " Includes both statistical and systematic",
              " uncertainties."
            ]
          },
          {
            "x4_code": "(ERR-SYS,,,1.0)",
            "free_txt": [
              " Systematic uncertainty.",
              "Systematic uncertainties include uncertainties in:"
            ]
          },
          {
            "x4_code": "(ERR-1,,,1.0)",
            "free_txt": [
              " sample mass (1.5%)"
            ]
          },
          {
            "x4_code": "(ERR-2,1.6,1.9,1.0)",
            "free_txt": [
              " solid angle:",
              "                    1.6% at 90 degr., 1.9% at 55 degr."
            ]
          },
          {
            "x4_code": "(ERR-3,0.5,0.9,1.0)",
            "free_txt": [
              " film reading:",
              "                    0.9% at 90 degr., 0.5% at 55 degr."
            ]
          },
          {
            "x4_code": "(ERR-4,2.6,2.9,1.0)",
            "free_txt": [
              " detector window thickness:",
              "                    2.9% at 90 degr., 2.6% at 55 degr."
            ]
          },
          {
            "x4_code": "(ERR-5,,,1.0)",
            "free_txt": [
              " flux determination (2.9%)"
            ]
          },
          {
            "x4_code": "(ERR-6,1.5,2.1,1.0)",
            "free_txt": [
              " baseline shift:",
              "                    1.5% at 55 degr., 2.1% at 90 degr."
            ]
          }
        ]
      },
      "monitor": {
        "0": [
          {
            "x4_code": "(3-LI-6(N,T)2-HE-4,,SIG)",
            "free_txt": [
              " Flux relative to 6Li(n,alpha),",
              " assuming 1/v dependence."
            ]
          }
        ]
      },
      "status": {
        "0": [
          {
            "x4_code": "(TABLE)",
            "free_txt": [
              " Data received on magnetic tape, Seeger, August",
              "        1970."
            ]
          }
        ]
      }
    },
    "common": {
      "heads": [
        "ERR-SYS",
        "ERR-1",
        "ERR-5",
        "EN-NRM",
        "MONIT",
        "MONIT-ERR"
      ],
      "units": [
        "PER-CENT",
        "PER-CENT",
        "PER-CENT",
        "EV",
        "B",
        "B"
      ],
      "data": [
        [
          4.4
        ],
        [
          1.5
        ],
        [
          2.9
        ],
        [
          0.0253
        ],
        [
          940.3
        ],
        [
          1.6
        ]
      ]
    },
    "data": {
      "heads": [
        "EN",
        "DATA",
        "ERR-T"
      ],
      "units": [
        "EV",
        "B",
        "PER-CENT"
      ],
      "data": [
        [
          51.1525,
          51.2537,
          51.4017,
          51.6574,
          51.8673,
          52.0135,
          52.0744,
          52.1263,
          52.2215,
          52.326,
          52.4308,
          52.5359,
          52.6414,
          52.7471,
          52.8532,
          52.9596,
          53.0663,
          53.1733,
          53.2806,
          53.3883,
          53.4963,
          53.6047,
          53.7133,
          53.776,
          53.8305,
          53.9398,
          54.0494,
          54.1593,
          54.4558,
          54.8813,
          55.1635,
          55.3343,
          55.4979,
          55.6123,
          55.6771,
          55.7345,
          55.8496,
          55.9651,
          56.023,
          56.139,
          56.2554,
          56.4237,
          56.548,
          56.6657,
          56.7246,
          56.8428,
          57.0141,
          57.2012,
          57.5015,
          57.7414,
          57.8628,
          57.9236,
          58.1093,
          58.4168,
          58.7267,
          59.1897,
          59.5981,
          59.6672,
          59.7309,
          59.8587,
          59.9227,
          60.0511,
          60.314,
          60.4985,
          60.5687,
          60.6338,
          60.7645,
          60.83,
          61.0223,
          61.2974,
          61.7916,
          62.2259,
          62.3659,
          62.434,
          62.635,
          62.7762,
          63.1574,
          63.8574,
          64.3966,
          64.7424,
          64.8867,
          64.9617,
          65.0341,
          65.1767,
          65.252,
          65.4821,
          65.7648,
          65.8385,
          66.0583,
          66.207,
          66.2836,
          66.3582,
          66.4329,
          66.5828,
          66.6579,
          66.7332,
          66.8841,
          66.9597,
          67.0354,
          67.1874,
          67.2635,
          67.3398,
          67.4162,
          67.5681,
          67.6462,
          67.7231,
          67.8762,
          67.9547,
          68.0322,
          68.1875,
          68.3425,
          68.4214,
          68.6559,
          68.8135,
          68.9721,
          69.1302,
          69.2897,
          69.4491,
          69.7062,
          69.9317,
          70.0936,
          70.2562,
          70.4193,
          70.5829,
          70.7472,
          70.912,
          71.0773,
          71.3441,
          71.576,
          71.6597,
          71.7447,
          71.913,
          72.0806,
          72.1652,
          72.25,
          72.3349,
          72.4215,
          72.5906,
          72.6761,
          72.7635,
          72.9354,
          73.1079,
          73.279,
          73.3657,
          73.4548,
          73.6269,
          73.7143,
          73.8042,
          73.9773,
          74.0653,
          74.1534,
          74.2417,
          74.3302,
          74.4188,
          74.5104,
          74.7979,
          75.0436,
          75.1335,
          75.2268,
          75.4075,
          75.5889,
          75.7673,
          75.8585,
          75.9536,
          76.137,
          76.321,
          76.5056,
          76.6868,
          76.7797,
          76.877,
          77.0593,
          77.1528,
          77.2511,
          77.5556,
          78.03,
          78.3899,
          78.5767,
          78.6731,
          78.992,
          79.3523,
          79.4501,
          79.5541,
          79.7506,
          79.9479,
          80.1459,
          80.3381,
          80.4377,
          80.5441,
          80.7375,
          80.8379,
          80.9384,
          81.0391,
          81.14,
          81.241,
          81.3423,
          81.4438,
          81.5528,
          81.7568,
          81.9616,
          82.1671,
          82.3734,
          82.5725,
          82.6762,
          82.7802,
          82.8844,
          82.9887,
          83.0933,
          83.2065,
          83.4081,
          83.5135,
          83.619,
          83.7248,
          83.8397,
          84.0523,
          84.2566,
          84.3635,
          84.4801,
          84.6856,
          84.7934,
          85.156,
          85.5537,
          85.6631,
          85.7728,
          85.8827,
          85.9927,
          86.103,
          86.2135,
          86.3242,
          86.4352,
          86.5463,
          86.6577,
          86.7692,
          86.8921,
          87.1052,
          87.2177,
          87.3303,
          87.4432,
          87.5563,
          87.6696,
          87.7831,
          87.8969,
          88.0109,
          88.1251,
          88.2395,
          88.3541,
          88.469,
          88.5841,
          88.6994,
          88.8149,
          88.9307,
          89.0467,
          89.1756,
          89.396,
          89.5129,
          89.6301,
          89.7474,
          89.865,
          89.9829,
          90.1009,
          90.2192,
          90.3377,
          90.4565,
          90.5755,
          90.6947,
          90.8142,
          90.9339,
          91.0538,
          91.174,
          91.3087,
          91.5504,
          91.7931,
          92.0368,
          92.2814,
          92.6846,
          93.0211,
          93.2697,
          93.5192,
          93.7698,
          94.0214,
          94.2574,
          94.384,
          94.5275,
          94.7822,
          95.0378,
          95.2945,
          95.5523,
          95.7933,
          95.923,
          96.0709,
          96.5004,
          96.8382,
          96.97,
          97.1021,
          97.2345,
          97.386,
          97.6523,
          97.9003,
          98.0343,
          98.1685,
          98.3031,
          98.4577,
          98.7084,
          98.844,
          98.98,
          99.1162,
          99.2731,
          99.5472,
          99.8015,
          99.9394,
          100.078,
          100.216,
          100.355,
          100.494,
          100.633,
          100.773,
          100.913,
          101.053,
          101.194,
          101.334,
          101.476,
          101.617,
          101.781,
          102.043,
          102.185,
          102.328,
          102.472,
          102.615,
          102.759,
          102.903,
          103.047,
          103.216,
          103.506,
          103.774,
          103.92,
          104.067,
          104.214,
          104.385,
          104.656,
          104.804,
          104.978,
          105.276,
          105.549,
          105.699,
          105.85,
          106.0,
          106.151,
          106.303,
          106.454,
          106.606,
          106.758,
          106.911,
          107.064,
          107.217,
          107.371,
          107.525,
          107.679,
          107.833,
          107.988,
          108.144,
          108.689,
          109.268,
          109.585,
          109.874,
          110.033,
          110.222,
          110.543,
          110.865,
          111.188,
          111.483,
          111.645,
          111.809,
          111.972,
          112.136,
          112.3,
          112.497,
          112.795,
          112.961,
          113.159,
          113.46,
          113.628,
          113.828,
          114.131,
          114.3,
          114.469,
          114.639,
          114.842,
          115.183,
          115.526,
          115.87,
          116.181,
          116.354,
          116.563,
          116.911,
          117.262,
          117.578,
          117.754,
          117.931,
          118.108,
          118.285,
          118.463,
          118.642,
          118.821,
          119.037,
          119.359,
          119.54,
          119.759,
          120.122,
          120.448,
          120.631,
          120.814,
          120.998,
          121.182,
          121.367,
          121.552,
          121.737,
          121.923,
          122.109,
          122.296,
          122.483,
          122.711,
          123.088,
          123.467,
          123.805,
          123.995,
          124.186,
          124.378,
          124.613,
          125.257,
          125.775,
          126.165,
          126.558,
          126.953,
          127.304,
          127.503,
          127.748,
          128.102,
          128.302,
          128.503,
          128.705,
          128.954,
          129.313,
          129.516,
          129.72,
          129.924,
          130.129,
          130.335,
          130.541,
          130.747,
          130.954,
          131.161,
          131.369,
          131.577,
          131.786,
          131.995,
          132.205,
          132.416,
          132.626,
          132.838,
          133.1,
          133.475,
          133.688,
          133.902,
          134.116,
          134.384,
          134.815,
          135.196,
          135.414,
          135.632,
          135.85,
          136.069,
          136.289,
          136.564,
          136.951,
          137.173,
          137.45,
          137.841,
          138.065,
          138.346,
          138.74,
          138.967,
          139.193,
          139.42,
          139.648,
          139.877,
          140.105,
          140.335,
          140.565,
          140.796,
          141.027,
          141.259,
          141.491,
          141.724,
          141.957,
          142.191,
          142.426,
          142.661,
          142.897,
          143.133,
          143.37,
          143.608,
          143.846,
          144.085,
          144.386,
          144.867,
          145.351,
          145.772,
          146.016,
          146.325,
          146.75,
          146.996,
          147.243,
          147.49,
          147.738,
          147.987,
          148.236,
          148.485,
          148.736,
          148.987,
          149.239,
          149.491,
          149.744,
          149.997,
          150.252,
          150.506,
          150.831,
          151.345,
          151.79,
          152.049,
          152.309,
          152.569,
          152.901,
          153.353,
          153.616,
          153.88,
          154.144,
          154.409,
          154.674,
          155.014,
          156.188,
          157.171,
          157.641,
          157.914,
          158.267,
          158.819,
          159.374,
          159.931,
          160.492,
          160.975,
          161.258,
          161.541,
          161.825,
          162.11,
          162.396,
          162.765,
          163.257,
          163.546,
          163.836,
          164.126,
          164.417,
          164.709,
          165.087,
          165.589,
          165.883,
          166.179,
          166.476,
          166.86,
          167.37,
          167.67,
          167.97,
          168.271,
          168.573,
          168.876,
          169.27,
          169.881,
          170.403,
          170.711,
          171.112,
          171.733,
          172.357,
          172.89,
          173.204,
          173.615,
          174.153,
          174.471,
          174.79,
          175.11,
          175.529,
          176.075,
          176.398,
          176.723,
          177.048,
          177.374,
          177.701,
          178.13,
          178.687,
          179.018,
          180.25,
          181.358,
          181.696,
          182.141,
          182.716,
          183.058,
          183.4,
          183.744,
          184.089,
          184.435,
          184.781,
          185.129,
          185.478,
          185.827,
          186.289,
          186.882,
          187.236,
          187.703,
          188.416,
          189.019,
          189.379,
          189.739,
          190.101,
          190.58,
          191.31,
          192.044,
          192.663,
          193.033,
          193.524,
          194.15,
          194.524,
          195.022,
          195.654,
          196.033,
          196.537,
          197.176,
          197.559,
          197.944,
          198.329,
          198.843,
          199.493,
          199.883,
          200.274,
          200.666,
          201.06,
          201.454,
          201.85,
          202.247,
          202.645,
          203.045,
          203.445,
          203.847,
          204.25,
          204.654,
          205.059,
          205.465,
          205.873,
          206.282,
          206.83,
          208.239,
          209.32,
          209.646,
          210.04,
          210.435,
          210.831,
          211.228,
          211.627,
          212.026,
          212.427,
          212.828,
          213.231,
          213.635,
          214.04,
          214.447,
          214.854,
          215.263,
          215.672,
          216.083,
          216.495,
          216.909,
          217.323,
          217.739,
          218.156,
          218.574,
          218.993,
          219.413,
          219.835,
          220.258,
          220.682,
          221.107,
          221.534,
          221.962,
          222.391,
          222.821,
          223.253,
          223.685,
          224.119,
          224.555,
          224.991,
          225.429,
          225.868,
          226.309,
          226.75,
          227.193,
          227.637,
          228.083,
          228.53,
          228.978,
          229.428,
          229.878,
          230.331,
          230.784,
          231.239,
          231.695,
          232.153,
          232.612,
          233.072,
          233.533,
          233.996,
          234.461,
          234.927,
          235.394,
          235.862,
          236.332,
          236.803,
          237.276,
          237.75,
          238.226,
          238.703,
          239.181,
          239.661,
          240.143,
          240.625,
          241.11,
          241.595,
          242.082,
          242.571,
          243.061,
          243.553,
          244.046,
          244.54,
          245.037,
          245.534,
          246.033,
          246.534,
          247.036,
          247.54,
          248.045,
          248.552,
          249.06,
          249.57,
          250.082,
          250.595,
          251.109,
          251.625,
          252.143,
          252.663,
          253.184,
          253.706,
          254.23,
          254.756,
          255.284,
          255.813,
          256.344,
          256.876,
          257.41,
          257.946,
          258.483,
          259.022,
          259.563,
          260.106,
          260.65,
          261.196,
          261.743,
          262.293,
          262.844,
          263.396,
          263.951,
          264.507,
          265.065,
          265.625,
          266.187,
          266.75,
          267.315,
          267.882,
          268.451,
          269.021,
          269.594,
          270.168,
          270.744,
          271.322,
          271.902,
          272.483,
          273.067,
          273.652,
          274.239,
          274.828,
          275.419,
          276.012,
          276.607,
          277.204,
          277.803,
          278.403,
          279.006,
          279.61,
          280.217,
          280.825,
          281.436,
          282.048,
          282.663,
          283.279,
          283.897,
          284.518,
          285.14,
          285.765,
          286.392,
          287.02,
          287.651,
          288.284,
          288.919,
          289.556,
          290.195,
          290.836,
          291.48,
          292.125,
          292.773,
          293.422,
          294.074,
          294.729,
          295.385,
          296.043,
          296.704,
          297.367,
          298.032,
          298.7,
          299.369,
          300.041,
          300.715,
          301.392,
          302.07,
          302.751,
          303.435,
          304.12,
          304.808,
          305.498,
          306.191,
          306.886,
          307.583,
          308.283,
          308.985,
          309.69,
          310.396,
          311.106,
          311.818,
          312.532,
          313.248,
          313.967,
          314.689,
          315.413,
          316.14,
          316.869,
          317.6,
          318.335,
          319.071,
          319.811,
          320.552,
          321.297,
          322.044,
          322.793,
          323.546,
          324.301,
          325.058,
          325.818,
          326.581,
          327.347,
          328.115,
          328.886,
          329.659,
          330.436,
          331.215,
          331.997,
          332.781,
          333.569,
          334.359,
          335.152,
          335.948,
          336.746,
          337.548,
          338.352,
          339.159,
          339.97,
          340.783,
          341.599,
          342.417,
          343.239,
          344.064,
          344.892,
          345.723,
          346.556,
          347.393,
          348.233,
          349.076,
          349.922,
          350.771,
          351.623,
          352.478,
          353.336,
          354.198,
          355.062,
          355.93,
          356.801,
          357.675,
          358.553,
          359.433,
          360.317,
          361.204,
          362.095,
          362.988,
          363.885,
          364.786,
          365.689,
          366.596,
          367.507,
          368.42,
          369.338,
          370.258,
          371.182,
          372.11,
          373.041,
          373.975,
          374.913,
          375.855,
          376.8,
          377.749,
          378.701,
          379.657,
          380.616,
          381.579,
          382.546,
          383.516,
          384.491,
          385.468,
          386.45,
          387.435,
          388.424,
          389.417,
          390.414,
          391.414,
          392.419,
          393.427,
          394.439,
          395.455,
          396.475,
          397.499,
          398.527,
          399.559,
          400.595,
          401.635,
          402.679,
          403.727,
          404.779,
          405.835,
          406.895,
          407.96,
          409.029,
          410.101,
          411.179,
          412.26,
          413.346,
          414.436,
          415.53,
          416.628,
          417.731,
          418.839,
          419.95,
          421.067,
          422.187,
          423.312,
          424.442,
          425.576,
          426.715,
          427.858,
          429.006,
          430.158,
          431.315,
          432.477,
          433.644,
          434.815,
          435.991,
          437.171,
          438.357,
          439.547,
          440.742,
          441.942,
          443.147,
          444.357,
          445.572,
          446.792,
          448.017,
          449.247,
          450.482,
          451.722,
          452.967,
          454.217,
          455.473,
          456.734,
          458.0,
          459.271,
          460.547,
          461.829,
          463.116,
          464.409,
          465.707,
          467.01,
          468.319,
          469.634,
          470.954,
          472.279,
          473.61,
          474.947,
          476.29,
          477.638,
          478.992,
          480.351,
          481.717,
          483.088,
          484.465,
          485.848,
          487.237,
          488.632,
          490.033,
          491.44,
          492.853,
          494.272,
          495.697,
          497.128,
          498.566,
          500.01,
          501.46,
          502.916,
          504.379,
          505.848,
          507.324,
          508.806,
          510.294,
          511.789,
          513.291,
          514.799,
          516.314,
          517.836,
          519.364,
          520.899,
          522.441,
          523.99,
          525.545,
          527.108,
          528.677,
          530.254,
          531.838,
          533.428,
          535.026,
          536.631,
          538.244,
          539.863,
          541.49,
          543.124,
          544.766,
          546.415,
          548.072,
          549.736,
          551.407,
          553.087,
          554.774,
          556.469,
          558.171,
          559.881,
          561.6,
          563.326,
          565.06,
          566.802,
          568.552,
          570.31,
          572.077,
          573.851,
          575.634,
          577.426,
          579.225,
          581.033,
          582.85,
          584.675,
          586.508,
          588.351,
          590.202,
          592.061,
          593.93,
          595.807,
          597.693,
          599.589,
          601.493,
          603.406,
          605.328,
          607.26,
          609.201,
          611.151,
          613.111,
          615.08,
          617.058,
          619.046,
          621.044,
          623.051,
          625.068,
          627.095,
          629.132,
          631.179,
          633.236,
          635.302,
          637.379,
          639.466,
          641.564,
          643.671,
          645.789,
          647.918,
          650.057,
          652.207,
          654.367,
          656.538,
          658.72,
          660.913,
          663.117,
          665.332,
          667.557,
          669.795,
          672.043,
          674.303,
          676.574,
          678.856,
          681.15,
          683.456,
          685.774,
          688.103,
          690.444,
          692.797,
          695.162,
          697.54,
          699.929,
          702.331,
          704.745,
          707.172,
          709.611,
          712.063,
          714.528,
          717.005,
          719.495,
          721.998,
          724.515,
          727.044,
          729.587,
          732.143,
          734.713,
          737.296,
          739.893,
          742.503,
          745.127,
          747.766,
          750.418,
          753.084,
          755.765,
          758.46,
          761.169,
          763.893,
          766.632,
          769.385,
          772.153,
          774.936,
          777.735,
          780.548,
          783.377,
          786.221,
          789.08,
          791.955,
          794.846,
          797.753,
          800.676,
          803.615,
          806.57,
          809.541,
          812.529,
          815.533,
          818.554,
          821.592,
          824.647,
          827.718,
          830.807,
          833.914,
          837.037,
          840.179,
          843.338,
          846.515,
          849.71,
          852.923,
          856.154,
          859.403,
          862.672,
          865.958,
          869.264,
          872.588,
          875.932,
          879.295,
          882.677,
          886.079,
          889.501,
          892.942,
          896.403,
          899.885,
          903.387,
          906.909,
          910.452,
          914.016,
          917.601,
          921.206,
          924.834,
          928.482,
          932.152,
          935.844,
          939.558,
          943.294,
          947.053,
          950.834,
          954.637,
          958.463,
          962.313,
          966.186,
          970.082,
          974.001,
          977.945,
          981.912,
          985.904,
          989.92,
          993.961,
          998.026
        ],
        [
          0.2093,
          0.20153,
          0.14523,
          0.14079,
          0.13133,
          0.15963,
          0.17076,
          0.20098,
          0.21325,
          0.2304,
          0.24847,
          0.26418,
          0.28824,
          0.34579,
          0.48514,
          0.83108,
          1.6378,
          2.9264,
          4.1648,
          4.5932,
          3.8647,
          2.4362,
          1.1575,
          0.75126,
          0.30842,
          0.14777,
          0.084659,
          0.044565,
          0.041854,
          0.038206,
          0.066077,
          0.070068,
          0.11423,
          0.10618,
          0.091531,
          0.053391,
          0.03566,
          0.043158,
          0.040597,
          0.020344,
          -0.0061856,
          -0.043213,
          -0.02549,
          0.037863,
          0.086038,
          0.080702,
          0.039792,
          0.0096433,
          -0.023617,
          -0.02648,
          -0.01109,
          0.0015187,
          0.0038186,
          0.013624,
          0.00034595,
          0.018459,
          0.023539,
          0.019103,
          0.0033645,
          -0.01048,
          -0.019879,
          -0.029998,
          -0.043854,
          -0.04716,
          -0.042911,
          -0.020322,
          0.010674,
          0.024671,
          0.013705,
          -0.00031788,
          -0.0070209,
          0.0070754,
          -0.00057192,
          -0.018266,
          -0.015987,
          -0.0033617,
          0.0049238,
          -0.00086567,
          -0.0057523,
          -0.005361,
          -0.019499,
          -0.025567,
          -0.032777,
          -0.045229,
          -0.054271,
          -0.072882,
          -0.055834,
          -0.028738,
          -0.018062,
          -0.021843,
          -0.017584,
          -0.011845,
          -0.003923,
          0.0075684,
          0.014841,
          0.023537,
          0.038574,
          0.05473,
          0.11298,
          0.30453,
          0.44324,
          0.6593,
          0.76019,
          0.78506,
          0.70328,
          0.5289,
          0.21355,
          0.11099,
          0.039418,
          0.0091611,
          0.013641,
          0.014911,
          0.0065217,
          0.006019,
          0.0015076,
          -0.0031644,
          0.0021705,
          0.0089933,
          0.014171,
          0.014387,
          0.017245,
          0.02162,
          0.018774,
          0.012593,
          0.011682,
          0.0078622,
          0.0034629,
          0.0014312,
          -0.0094619,
          -0.012699,
          -0.012918,
          -0.014069,
          -0.013657,
          -0.0032232,
          0.011412,
          0.018004,
          0.015845,
          0.0060955,
          0.0024845,
          0.0033158,
          0.0026347,
          -0.0010753,
          -0.0025534,
          -0.0055854,
          -0.0086387,
          -0.011585,
          -0.016102,
          -0.019628,
          -0.014506,
          -0.012143,
          -0.016395,
          -0.021836,
          -0.026239,
          -0.031114,
          -0.035589,
          -0.037589,
          -0.037193,
          -0.024165,
          -0.019972,
          -0.026758,
          -0.023281,
          -0.0086966,
          -0.0020698,
          -0.0025962,
          -0.0072719,
          -0.0068039,
          -0.009978,
          -0.014469,
          -0.017942,
          -0.017908,
          -0.010854,
          -0.0044758,
          -0.00059631,
          0.0014889,
          -0.0016714,
          -0.0021865,
          -0.0033036,
          -0.007937,
          -0.010145,
          -0.01462,
          -0.019053,
          -0.018218,
          -0.019072,
          -0.026834,
          -0.020282,
          -0.026556,
          -0.033211,
          -0.034836,
          -0.028585,
          -0.016439,
          -0.0038423,
          0.00037404,
          -0.0051918,
          -0.015173,
          -0.027785,
          -0.039287,
          -0.038911,
          -0.028871,
          -0.026046,
          -0.024104,
          -0.025714,
          -0.02352,
          -0.017209,
          -0.0091046,
          -0.0060137,
          -0.017643,
          -0.036212,
          -0.042011,
          -0.030277,
          -0.023033,
          -0.017346,
          -0.013827,
          -0.012751,
          -0.01368,
          -0.018318,
          -0.020892,
          -0.022795,
          -0.024774,
          -0.020648,
          -0.015285,
          -0.030448,
          -0.045315,
          -0.048472,
          -0.04237,
          -0.035042,
          -0.028259,
          -0.019346,
          -0.011239,
          -0.0068015,
          -0.00027116,
          0.010485,
          0.017776,
          0.0096983,
          -0.021734,
          -0.028466,
          -0.022048,
          -0.010838,
          -0.00044693,
          0.0077464,
          0.016359,
          0.030332,
          0.04975,
          0.066651,
          0.072332,
          0.064913,
          0.048668,
          0.030517,
          0.015932,
          0.0054223,
          -0.0015034,
          -0.0047196,
          -0.0049758,
          -0.0068078,
          -0.0093839,
          -0.0090978,
          -0.0061243,
          -0.0028692,
          -0.00099851,
          0.0010837,
          0.0039591,
          0.004745,
          0.0011542,
          -0.005334,
          -0.010242,
          -0.009959,
          -0.0057748,
          -0.00060029,
          0.0029289,
          0.0039373,
          0.0038652,
          0.0053437,
          0.0067626,
          0.007264,
          0.0052794,
          0.0052497,
          0.0065388,
          0.0060348,
          0.0056502,
          0.0039275,
          0.0047553,
          0.0063328,
          0.0072025,
          0.0051546,
          0.002461,
          0.00042139,
          -0.0021902,
          -0.0010982,
          0.0018365,
          0.00051985,
          -0.0043007,
          -0.0050584,
          -0.0088636,
          -0.012926,
          -0.016207,
          -0.017955,
          -0.016063,
          -0.0061362,
          0.0038991,
          0.0030945,
          -0.015233,
          -0.02738,
          -0.015616,
          -0.0052641,
          0.002098,
          0.0043698,
          0.0016647,
          -0.0019504,
          -0.006478,
          -0.010469,
          -0.010312,
          -0.0070264,
          -0.0038665,
          -0.0014422,
          0.0015035,
          0.0059182,
          0.010751,
          0.013076,
          0.010381,
          0.0043522,
          -0.00088828,
          -0.0027182,
          -0.003315,
          -0.0064599,
          -0.0077242,
          -0.0067645,
          -0.0033576,
          -0.000453,
          0.00089884,
          0.0023116,
          0.0035946,
          0.003961,
          0.00032741,
          -0.00061756,
          0.0020383,
          0.0046152,
          0.0059618,
          0.0065014,
          0.00865,
          0.011021,
          0.012218,
          0.010474,
          0.0106,
          0.01434,
          0.020069,
          0.028547,
          0.046186,
          0.088935,
          0.18177,
          0.36867,
          0.68026,
          0.99106,
          1.1179,
          0.99577,
          0.66234,
          0.31167,
          0.10547,
          0.027724,
          0.0064547,
          0.001907,
          0.0014194,
          -0.0011914,
          -1.6994e-05,
          0.0011141,
          0.0027902,
          0.0041385,
          0.004039,
          0.003836,
          0.004199,
          0.0048955,
          0.0059818,
          0.007537,
          0.0095012,
          0.01129,
          0.013021,
          0.014508,
          0.012876,
          0.0087096,
          0.0069583,
          0.010609,
          0.012909,
          0.013456,
          0.010956,
          0.0090286,
          0.0077441,
          0.0058673,
          0.0040315,
          0.0034451,
          0.0012715,
          0.0013073,
          -0.0018523,
          -0.0041304,
          -0.0034864,
          -0.0035297,
          -0.0058083,
          -0.0074574,
          -0.005144,
          -0.00047478,
          0.0056928,
          0.011791,
          0.013684,
          0.0087196,
          0.00044192,
          -0.0036462,
          -0.00079048,
          0.00088871,
          0.0011248,
          -9.5267e-05,
          0.0022159,
          0.0043679,
          0.0034254,
          0.00073547,
          0.00082005,
          0.0056797,
          0.012472,
          0.015831,
          0.010504,
          -0.0010373,
          -0.0070701,
          0.00054031,
          0.010307,
          0.002878,
          -0.0074573,
          -0.0057802,
          -0.0028912,
          -0.00020283,
          0.0015318,
          0.0027461,
          0.0026077,
          0.00097803,
          -0.0014722,
          -0.0014581,
          -0.00093304,
          -3.7853e-05,
          0.0017496,
          0.0026249,
          -0.00010476,
          -0.0040869,
          -0.0090552,
          -0.013343,
          -0.014466,
          -0.0061609,
          0.0040644,
          0.01385,
          0.026816,
          0.049931,
          0.090171,
          0.15556,
          0.24013,
          0.30798,
          0.3085,
          0.22214,
          0.1075,
          0.034377,
          0.005046,
          -0.0044615,
          -0.0056549,
          -0.0035985,
          -0.0018507,
          -0.002119,
          -0.0075909,
          -0.011479,
          -0.011851,
          -0.0097907,
          -0.0084622,
          -0.0091114,
          -0.0079904,
          -0.0065334,
          -0.0045701,
          -0.0025349,
          -0.0027141,
          -0.0056935,
          -0.0082424,
          -0.0065772,
          -0.0037306,
          -0.001991,
          -0.0056149,
          -0.010143,
          -0.011092,
          -0.0080599,
          -0.0039458,
          0.0019883,
          0.0067787,
          0.0073232,
          0.002574,
          -0.0043404,
          -0.0077161,
          -0.0039826,
          0.0070427,
          0.020713,
          0.030086,
          0.028844,
          0.01355,
          -0.011661,
          -0.033004,
          -0.038901,
          -0.033103,
          -0.024513,
          -0.016096,
          -0.0092975,
          -0.0050523,
          -0.0020964,
          0.00064635,
          0.0019166,
          0.00043197,
          0.0032807,
          -0.00055718,
          -0.01145,
          -0.019172,
          -0.01674,
          -0.010807,
          -0.0030833,
          0.0073083,
          0.025754,
          0.057963,
          0.10562,
          0.17694,
          0.28092,
          0.38787,
          0.43621,
          0.372,
          0.21299,
          0.081627,
          0.026957,
          0.0089189,
          9.5506e-05,
          -0.0063265,
          -0.0068198,
          -0.0045529,
          0.00055992,
          0.0074958,
          0.0099559,
          -0.0038014,
          -0.014523,
          -0.017721,
          -0.014701,
          -0.0089177,
          -0.0033076,
          -0.00074052,
          -0.00072022,
          -0.0015518,
          0.0035622,
          0.009804,
          0.011817,
          0.0027029,
          -0.0034203,
          -0.0050309,
          -0.0043057,
          -0.0019298,
          0.00028035,
          0.0018935,
          0.0039396,
          0.0069066,
          0.0093787,
          0.011053,
          0.010128,
          0.008389,
          0.0065417,
          0.0027616,
          -0.0030902,
          -0.0077132,
          -0.0087854,
          -0.006537,
          -0.0036954,
          -0.00049399,
          0.0019081,
          0.0018155,
          -0.001441,
          -0.004046,
          -0.0070123,
          -0.008735,
          -0.0079865,
          -0.0053109,
          -0.0034807,
          -0.0034302,
          -0.0050013,
          -0.0063985,
          -0.007627,
          -0.0094934,
          -0.009532,
          -0.0057477,
          0.0040219,
          0.015033,
          0.0084316,
          -0.0059483,
          -0.018215,
          -0.023337,
          -0.023888,
          -0.017457,
          -0.01383,
          -0.01333,
          -0.01109,
          -0.0057087,
          -0.00080089,
          0.0010357,
          -0.00030427,
          -0.0028635,
          -0.0052504,
          -0.0010763,
          0.0058902,
          0.011246,
          0.0044967,
          -0.0049815,
          -0.013005,
          -0.015417,
          -0.011215,
          -0.0041922,
          0.0020018,
          0.0050913,
          0.0043083,
          0.0023895,
          0.0020164,
          -0.00055655,
          -0.0044763,
          -0.0049997,
          0.0012081,
          -0.00058624,
          -0.006139,
          -0.010903,
          -0.014263,
          -0.013835,
          -0.0096513,
          -0.01218,
          -0.017053,
          -0.023275,
          -0.025707,
          -0.01628,
          -0.0058322,
          -0.00021401,
          -0.010497,
          -0.020699,
          -0.027253,
          -0.023787,
          -0.016027,
          -0.007495,
          -0.00058713,
          0.001206,
          -0.0032961,
          -0.0071828,
          -0.0065478,
          0.001901,
          0.018127,
          0.038395,
          0.055523,
          0.06869,
          0.088331,
          0.1305,
          0.20714,
          0.30571,
          0.36913,
          0.33021,
          0.21088,
          0.10227,
          0.039299,
          0.012104,
          0.0033757,
          0.0063317,
          0.0075753,
          0.031593,
          0.03008,
          0.028405,
          0.024789,
          0.02411,
          0.028531,
          0.02594,
          0.026772,
          0.03368,
          0.052444,
          0.070059,
          0.10167,
          0.133,
          0.13719,
          0.10066,
          0.079751,
          0.069968,
          0.068056,
          0.062783,
          0.050904,
          0.043396,
          0.04032,
          0.028088,
          0.021796,
          0.018033,
          0.01942,
          0.020251,
          0.021422,
          0.023172,
          0.021678,
          0.021151,
          0.02528,
          0.024709,
          0.030311,
          0.026183,
          0.024016,
          0.02647,
          0.029314,
          0.030589,
          0.024251,
          0.026084,
          0.026528,
          0.030707,
          0.035813,
          0.058105,
          0.053951,
          0.048459,
          0.04443,
          0.044884,
          0.05644,
          0.068797,
          0.099002,
          0.12649,
          0.12114,
          0.081068,
          0.049,
          0.037698,
          0.025183,
          0.030136,
          0.022076,
          0.018076,
          0.021661,
          0.023967,
          0.025214,
          0.02494,
          0.025165,
          0.028734,
          0.033152,
          0.038914,
          0.041853,
          0.029893,
          0.0318,
          0.043027,
          0.046837,
          0.053508,
          0.050187,
          0.043859,
          0.046937,
          0.032186,
          0.027349,
          0.029639,
          0.025212,
          0.023903,
          0.025396,
          0.044175,
          0.034882,
          0.043179,
          0.020156,
          0.025734,
          0.021455,
          0.02071,
          0.01935,
          0.024647,
          0.021521,
          0.0232,
          0.023897,
          0.017239,
          0.025077,
          0.020107,
          0.026097,
          0.026464,
          0.049487,
          0.046193,
          0.056794,
          0.063636,
          0.049578,
          0.052349,
          0.037678,
          0.026084,
          0.020617,
          0.024969,
          0.028619,
          0.024575,
          0.024439,
          0.027772,
          0.031238,
          0.023192,
          0.017937,
          0.027171,
          0.028954,
          0.029739,
          0.032762,
          0.028529,
          0.035167,
          0.042451,
          0.041388,
          0.047717,
          0.069581,
          0.079561,
          0.10877,
          0.17082,
          0.16349,
          0.1247,
          0.07906,
          0.075033,
          0.062495,
          0.049106,
          0.036485,
          0.031233,
          0.02964,
          0.028845,
          0.030021,
          0.0238,
          0.028002,
          0.020921,
          0.023751,
          0.02174,
          0.022235,
          0.026627,
          0.046756,
          0.048975,
          0.037127,
          0.030226,
          0.019408,
          0.015557,
          0.01963,
          0.028194,
          0.020135,
          0.025451,
          0.023594,
          0.031723,
          0.028344,
          0.029239,
          0.026591,
          0.022516,
          0.023735,
          0.04013,
          0.038727,
          0.049543,
          0.078566,
          0.089652,
          0.096075,
          0.088769,
          0.0645,
          0.047001,
          0.05689,
          0.070965,
          0.085155,
          0.092387,
          0.09381,
          0.071405,
          0.054045,
          0.029632,
          0.024076,
          0.018408,
          0.024787,
          0.032721,
          0.03791,
          0.032181,
          0.023719,
          0.023386,
          0.034665,
          0.039044,
          0.034564,
          0.03379,
          0.035102,
          0.045081,
          0.052773,
          0.064101,
          0.10384,
          0.16926,
          0.18335,
          0.2032,
          0.17994,
          0.14452,
          0.091954,
          0.052815,
          0.052337,
          0.05758,
          0.054858,
          0.070888,
          0.062156,
          0.047124,
          0.061314,
          0.083319,
          0.10178,
          0.13883,
          0.17809,
          0.20733,
          0.18565,
          0.16594,
          0.10441,
          0.028002,
          0.023613,
          0.023571,
          0.020686,
          0.020351,
          0.025965,
          0.025286,
          0.031269,
          0.033225,
          0.029838,
          0.042089,
          0.025083,
          0.027516,
          0.020317,
          0.025545,
          0.027141,
          0.030453,
          0.027149,
          0.033389,
          0.026181,
          0.037234,
          0.039052,
          0.034759,
          0.026769,
          0.028205,
          0.02848,
          0.026696,
          0.02735,
          0.028449,
          0.023573,
          0.063932,
          0.030084,
          0.023553,
          0.023981,
          0.024363,
          0.0224,
          0.024278,
          0.020856,
          0.027846,
          0.025388,
          0.023779,
          0.031448,
          0.038226,
          0.055843,
          0.065753,
          0.071217,
          0.055948,
          0.057668,
          0.045341,
          0.044149,
          0.050363,
          0.067096,
          0.085162,
          0.1144,
          0.10263,
          0.070807,
          0.048107,
          0.032705,
          0.04479,
          0.035372,
          0.027361,
          0.027763,
          0.02293,
          0.028095,
          0.028597,
          0.036236,
          0.051978,
          0.048652,
          0.039657,
          0.029299,
          0.035368,
          0.043105,
          0.049259,
          0.055117,
          0.048541,
          0.057156,
          0.045731,
          0.031968,
          0.027408,
          0.034223,
          0.041899,
          0.041323,
          0.048556,
          0.040887,
          0.032346,
          0.029819,
          0.032546,
          0.027052,
          0.030649,
          0.039474,
          0.030453,
          0.034306,
          0.051981,
          0.066642,
          0.071805,
          0.078863,
          0.082764,
          0.048661,
          0.027129,
          0.030565,
          0.034391,
          0.057274,
          0.04737,
          0.058601,
          0.044711,
          0.023697,
          0.029113,
          0.028078,
          0.027271,
          0.027492,
          0.027246,
          0.024438,
          0.022383,
          0.028458,
          0.027092,
          0.036731,
          0.034503,
          0.037815,
          0.028967,
          0.030812,
          0.03177,
          0.037943,
          0.041821,
          0.034509,
          0.036111,
          0.039796,
          0.036499,
          0.046787,
          0.050948,
          0.054734,
          0.063522,
          0.077298,
          0.083558,
          0.074203,
          0.068819,
          0.094532,
          0.078873,
          0.09142,
          0.094714,
          0.13652,
          0.18043,
          0.25792,
          0.34212,
          0.29397,
          0.049538,
          0.036227,
          0.033247,
          0.030389,
          0.035291,
          0.033673,
          0.053765,
          0.055299,
          0.049883,
          0.05561,
          0.071067,
          0.092491,
          0.11513,
          0.12014,
          0.12792,
          0.10048,
          0.066714,
          0.078841,
          0.066236,
          0.043024,
          0.043737,
          0.044832,
          0.047808,
          0.048981,
          0.044334,
          0.046696,
          0.048237,
          0.048767,
          0.060013,
          0.067552,
          0.070784,
          0.079321,
          0.10169,
          0.13578,
          0.11398,
          0.066596,
          0.05807,
          0.085103,
          0.096085,
          0.094378,
          0.11005,
          0.12522,
          0.093205,
          0.056078,
          0.040668,
          0.05564,
          0.048105,
          0.043402,
          0.060726,
          0.055697,
          0.051695,
          0.049428,
          0.044288,
          0.054561,
          0.065827,
          0.070433,
          0.070699,
          0.077974,
          0.070376,
          0.05924,
          0.062968,
          0.060392,
          0.05556,
          0.058556,
          0.060666,
          0.063121,
          0.078609,
          0.071707,
          0.072139,
          0.066769,
          0.05984,
          0.075371,
          0.083554,
          0.087367,
          0.078501,
          0.063309,
          0.059852,
          0.055227,
          0.055365,
          0.05549,
          0.056637,
          0.058488,
          0.046344,
          0.062958,
          0.049906,
          0.060311,
          0.053236,
          0.050675,
          0.06647,
          0.053842,
          0.05171,
          0.061178,
          0.052351,
          0.054235,
          0.042984,
          0.058636,
          0.047532,
          0.057004,
          0.046267,
          0.050606,
          0.05062,
          0.050835,
          0.053751,
          0.086225,
          0.084124,
          0.081093,
          0.056422,
          0.033922,
          0.037818,
          0.051021,
          0.067858,
          0.076605,
          0.088189,
          0.11352,
          0.13696,
          0.15824,
          0.11439,
          0.05996,
          0.065207,
          0.070337,
          0.07345,
          0.079775,
          0.087167,
          0.1216,
          0.083848,
          0.044739,
          0.057073,
          0.11257,
          0.12687,
          0.15067,
          0.20215,
          0.31646,
          0.39025,
          0.22814,
          0.17554,
          0.23716,
          0.31898,
          0.46277,
          1.0499,
          1.625,
          1.7041,
          1.0432,
          0.07896,
          0.073978,
          0.048097,
          0.053126,
          0.071757,
          0.11167,
          0.13993,
          0.20028,
          0.3567,
          0.53621,
          0.97729,
          0.067814,
          0.055447,
          0.052987,
          0.037277,
          0.051308,
          0.029336,
          0.042294,
          0.03655,
          0.046114,
          0.04621,
          0.053557,
          0.046423,
          0.047076,
          0.046966,
          0.03777,
          0.035005,
          0.058575,
          0.039839,
          0.060235,
          0.051828,
          0.085412,
          0.055138,
          0.037753,
          0.04094,
          0.045314,
          0.072845,
          0.052043,
          0.040965,
          0.055883,
          0.037381,
          0.036048,
          0.049249,
          0.053914,
          0.034287,
          0.061007,
          0.033512,
          0.03349,
          0.056318,
          0.040423,
          0.067785,
          0.044859,
          0.052777,
          0.029142,
          0.043694,
          0.031443,
          0.045934,
          0.044897,
          0.047146,
          0.03027,
          0.028961,
          0.027425,
          0.024675,
          0.02596,
          0.027898,
          0.023629,
          0.025386,
          0.02305,
          0.030268,
          0.028552,
          0.037084
        ],
        [
          49.56,
          51.42,
          28.28,
          27.13,
          43.93,
          22.93,
          28.39,
          25.35,
          19.1,
          18.42,
          18.35,
          17.77,
          17.11,
          16.12,
          12.62,
          11.51,
          11.56,
          10.33,
          8.51,
          7.02,
          7.38,
          9.21,
          11.45,
          16.81,
          19.55,
          30.56,
          50.85,
          85.38,
          56.37,
          73.83,
          64.24,
          104.73,
          52.23,
          42.72,
          55.63,
          79.16,
          120.31,
          120.35,
          109.04,
          184.05,
          540.22,
          83.24,
          205.89,
          155.13,
          78.48,
          68.46,
          79.75,
          279.82,
          63.82,
          105.33,
          278.69,
          2673.56,
          525.34,
          114.47,
          4410.64,
          64.94,
          74.1,
          125.09,
          641.88,
          207.42,
          95.34,
          73.38,
          34.2,
          48.33,
          70.56,
          133.0,
          232.5,
          91.8,
          110.73,
          2724.98,
          112.84,
          256.12,
          3726.72,
          104.92,
          97.71,
          461.52,
          143.82,
          634.58,
          122.89,
          195.96,
          48.68,
          52.38,
          44.36,
          29.41,
          36.1,
          18.0,
          43.9,
          100.5,
          83.72,
          51.88,
          72.62,
          151.53,
          411.9,
          191.3,
          145.37,
          101.59,
          43.49,
          36.73,
          30.57,
          20.48,
          25.39,
          21.37,
          12.13,
          9.3,
          14.23,
          17.62,
          26.56,
          35.41,
          41.21,
          72.57,
          58.58,
          66.1,
          124.92,
          173.24,
          754.71,
          225.72,
          388.67,
          87.66,
          45.59,
          92.93,
          59.73,
          45.84,
          51.09,
          61.03,
          59.13,
          77.65,
          200.32,
          345.64,
          87.93,
          64.47,
          44.03,
          41.67,
          60.53,
          299.64,
          110.73,
          66.86,
          46.61,
          133.72,
          284.04,
          143.63,
          181.98,
          399.94,
          270.62,
          119.88,
          53.34,
          96.22,
          62.41,
          29.17,
          51.08,
          63.43,
          46.06,
          34.68,
          31.63,
          31.11,
          21.26,
          22.79,
          70.18,
          103.48,
          64.73,
          34.02,
          43.33,
          197.86,
          810.38,
          359.15,
          91.55,
          92.26,
          55.91,
          53.54,
          43.87,
          30.23,
          75.28,
          189.15,
          926.87,
          239.13,
          180.26,
          250.86,
          226.88,
          64.02,
          30.05,
          48.86,
          36.87,
          30.81,
          46.51,
          34.5,
          50.51,
          35.93,
          22.55,
          14.72,
          32.19,
          73.75,
          383.35,
          4360.1,
          324.0,
          122.11,
          70.12,
          46.32,
          28.75,
          24.24,
          20.81,
          20.07,
          18.57,
          40.19,
          65.52,
          120.21,
          212.49,
          72.03,
          30.52,
          17.81,
          24.73,
          25.46,
          28.96,
          36.59,
          28.94,
          26.56,
          29.68,
          27.11,
          17.89,
          29.39,
          44.87,
          41.56,
          51.25,
          28.98,
          22.19,
          21.09,
          22.41,
          27.91,
          45.07,
          81.83,
          140.35,
          4008.05,
          122.73,
          84.8,
          108.21,
          57.97,
          32.88,
          33.44,
          63.94,
          1749.75,
          113.02,
          63.18,
          42.46,
          31.02,
          23.79,
          18.56,
          15.14,
          14.43,
          18.66,
          31.3,
          88.89,
          320.92,
          102.87,
          74.63,
          75.29,
          42.86,
          41.81,
          61.24,
          130.89,
          378.28,
          383.2,
          120.11,
          107.46,
          437.38,
          92.71,
          47.86,
          49.76,
          78.33,
          663.01,
          120.48,
          57.22,
          53.53,
          41.66,
          34.67,
          30.52,
          28.33,
          42.64,
          35.99,
          39.78,
          43.73,
          59.48,
          66.77,
          52.37,
          34.5,
          55.38,
          116.7,
          644.47,
          119.77,
          340.05,
          222.57,
          533.61,
          45.4,
          94.05,
          55.02,
          42.25,
          36.64,
          23.82,
          38.38,
          235.61,
          407.35,
          546.24,
          99.69,
          35.58,
          42.1,
          94.7,
          212.84,
          104.08,
          204.53,
          219.94,
          91.72,
          47.67,
          42.88,
          58.47,
          101.28,
          254.63,
          245.01,
          69.08,
          43.22,
          38.37,
          50.28,
          108.18,
          442.98,
          137.22,
          71.84,
          46.53,
          39.01,
          47.02,
          120.63,
          871.44,
          371.05,
          140.26,
          86.79,
          53.57,
          601.51,
          443.02,
          134.95,
          56.71,
          44.43,
          27.79,
          32.37,
          27.26,
          17.21,
          19.2,
          26.9,
          22.38,
          17.97,
          14.71,
          11.2,
          8.65,
          10.85,
          12.73,
          9.59,
          6.56,
          5.8,
          6.94,
          8.36,
          9.46,
          11.8,
          22.36,
          55.47,
          159.94,
          111.77,
          176.04,
          10476.53,
          206.46,
          81.33,
          38.45,
          37.34,
          36.96,
          33.14,
          47.64,
          42.23,
          32.37,
          25.63,
          22.18,
          20.68,
          14.7,
          25.11,
          34.35,
          28.37,
          29.66,
          24.38,
          16.45,
          27.88,
          32.67,
          38.96,
          51.4,
          51.67,
          69.3,
          200.24,
          227.33,
          210.9,
          93.77,
          81.68,
          103.68,
          64.53,
          41.3,
          52.7,
          608.92,
          66.35,
          43.99,
          38.2,
          49.03,
          893.56,
          77.17,
          375.06,
          285.3,
          154.07,
          1763.8,
          109.07,
          83.17,
          109.63,
          502.44,
          491.02,
          80.78,
          42.49,
          44.91,
          77.4,
          681.16,
          92.63,
          1546.62,
          54.96,
          132.84,
          33.5,
          42.46,
          83.85,
          1305.1,
          169.48,
          63.6,
          43.46,
          166.4,
          108.09,
          123.4,
          220.65,
          9497.02,
          225.93,
          111.52,
          5813.06,
          147.17,
          57.27,
          31.57,
          17.61,
          72.84,
          152.67,
          47.0,
          25.27,
          19.85,
          15.59,
          10.56,
          7.75,
          6.68,
          7.39,
          9.39,
          12.93,
          22.26,
          77.1,
          72.11,
          58.92,
          101.47,
          215.9,
          138.99,
          59.55,
          37.76,
          32.18,
          34.44,
          25.1,
          20.64,
          33.4,
          41.33,
          58.61,
          110.33,
          110.21,
          49.79,
          22.43,
          43.08,
          77.89,
          111.81,
          64.93,
          37.14,
          23.76,
          46.44,
          99.93,
          215.74,
          65.28,
          65.43,
          205.84,
          127.22,
          70.09,
          135.94,
          82.95,
          29.81,
          25.97,
          31.47,
          68.62,
          82.21,
          25.29,
          15.83,
          13.68,
          15.2,
          19.63,
          30.68,
          56.72,
          133.24,
          441.34,
          118.5,
          595.86,
          97.34,
          1125.54,
          55.83,
          18.7,
          19.97,
          28.65,
          96.0,
          48.29,
          25.36,
          18.43,
          16.77,
          16.16,
          16.0,
          11.03,
          6.62,
          7.41,
          11.16,
          20.67,
          34.58,
          47.97,
          2434.9,
          37.17,
          52.63,
          78.81,
          674.66,
          63.74,
          50.59,
          155.92,
          33.35,
          24.19,
          25.69,
          40.86,
          109.9,
          288.72,
          206.11,
          129.73,
          96.76,
          43.01,
          30.59,
          114.61,
          73.98,
          47.41,
          53.35,
          149.84,
          983.26,
          142.37,
          69.33,
          44.0,
          33.03,
          20.06,
          30.87,
          37.09,
          50.59,
          125.53,
          104.26,
          36.58,
          20.93,
          38.72,
          69.48,
          562.78,
          146.54,
          102.65,
          184.81,
          67.11,
          37.92,
          29.7,
          34.74,
          52.56,
          56.67,
          59.57,
          55.71,
          41.78,
          24.87,
          23.32,
          32.86,
          115.48,
          218.12,
          44.11,
          111.37,
          162.56,
          51.13,
          37.91,
          20.81,
          34.87,
          36.77,
          28.27,
          29.91,
          58.3,
          394.06,
          202.69,
          983.23,
          91.09,
          25.27,
          302.26,
          69.0,
          35.97,
          158.82,
          114.49,
          34.6,
          27.24,
          34.34,
          82.66,
          180.36,
          75.23,
          77.16,
          123.22,
          135.33,
          707.56,
          73.57,
          48.54,
          314.51,
          830.86,
          77.44,
          44.11,
          34.23,
          30.79,
          49.35,
          32.7,
          32.16,
          23.94,
          16.08,
          34.21,
          101.57,
          2326.02,
          66.47,
          29.5,
          17.29,
          28.3,
          39.65,
          84.03,
          1081.3,
          350.37,
          197.69,
          93.26,
          110.85,
          477.54,
          52.91,
          22.12,
          15.76,
          13.99,
          11.81,
          12.56,
          12.56,
          9.19,
          6.96,
          6.93,
          8.04,
          10.96,
          18.2,
          38.78,
          89.6,
          29.67,
          34.85,
          19.68,
          23.03,
          27.29,
          30.16,
          28.68,
          26.24,
          26.31,
          24.09,
          19.54,
          16.53,
          12.31,
          19.65,
          12.68,
          10.36,
          16.49,
          11.37,
          13.97,
          12.51,
          15.0,
          15.1,
          19.2,
          18.94,
          24.33,
          29.5,
          36.22,
          34.85,
          33.33,
          33.92,
          31.77,
          35.42,
          33.47,
          26.87,
          28.57,
          24.22,
          26.9,
          31.54,
          24.66,
          27.59,
          39.29,
          33.26,
          27.95,
          27.0,
          23.12,
          30.1,
          28.72,
          24.13,
          17.18,
          19.08,
          22.71,
          17.15,
          14.79,
          14.79,
          15.47,
          11.53,
          30.81,
          34.49,
          35.41,
          32.76,
          42.66,
          35.35,
          40.43,
          36.71,
          37.92,
          31.84,
          29.23,
          32.85,
          29.92,
          24.19,
          21.02,
          26.91,
          27.9,
          24.24,
          22.3,
          22.19,
          18.24,
          18.96,
          22.47,
          41.57,
          24.97,
          30.63,
          27.9,
          35.89,
          34.08,
          30.33,
          44.98,
          24.94,
          26.98,
          37.0,
          30.53,
          36.16,
          35.19,
          38.49,
          32.64,
          35.01,
          30.56,
          34.11,
          48.09,
          41.51,
          38.67,
          32.44,
          33.75,
          33.74,
          19.35,
          18.01,
          15.6,
          21.32,
          32.0,
          35.86,
          32.38,
          37.99,
          31.83,
          29.05,
          32.7,
          37.37,
          34.08,
          34.57,
          43.04,
          42.98,
          37.28,
          28.18,
          35.99,
          26.35,
          33.77,
          24.04,
          23.91,
          22.51,
          22.6,
          16.04,
          15.24,
          19.66,
          15.48,
          9.71,
          12.12,
          15.09,
          25.25,
          18.39,
          19.37,
          28.98,
          27.04,
          33.74,
          31.38,
          31.43,
          35.13,
          35.68,
          39.19,
          37.91,
          42.72,
          40.84,
          34.83,
          37.13,
          23.39,
          26.06,
          31.93,
          41.04,
          54.04,
          43.93,
          39.65,
          42.07,
          40.02,
          39.31,
          32.99,
          33.73,
          35.28,
          37.73,
          39.44,
          38.29,
          27.06,
          25.34,
          22.51,
          19.14,
          22.46,
          16.13,
          14.78,
          17.97,
          23.18,
          19.02,
          21.05,
          20.04,
          18.92,
          15.16,
          16.59,
          23.28,
          37.22,
          41.48,
          53.77,
          40.28,
          36.79,
          30.72,
          34.47,
          43.18,
          45.75,
          33.26,
          30.77,
          34.87,
          37.15,
          38.17,
          26.63,
          24.7,
          21.77,
          20.24,
          14.36,
          10.68,
          10.24,
          11.13,
          11.99,
          21.44,
          25.68,
          21.42,
          22.67,
          22.72,
          32.93,
          25.41,
          26.77,
          19.95,
          17.24,
          15.13,
          16.21,
          10.85,
          9.59,
          9.76,
          20.66,
          32.5,
          39.42,
          45.91,
          45.92,
          51.19,
          56.72,
          41.76,
          45.7,
          36.7,
          36.61,
          38.57,
          45.74,
          42.73,
          43.52,
          55.2,
          48.78,
          45.32,
          38.81,
          39.28,
          43.75,
          43.65,
          34.73,
          35.36,
          38.64,
          44.61,
          47.04,
          44.11,
          51.12,
          46.68,
          46.51,
          48.38,
          53.7,
          43.58,
          49.88,
          50.69,
          53.11,
          49.2,
          45.35,
          56.03,
          45.6,
          48.14,
          50.03,
          37.44,
          39.19,
          26.02,
          23.16,
          20.38,
          26.47,
          25.09,
          30.21,
          31.39,
          33.61,
          28.79,
          21.46,
          23.46,
          26.15,
          22.25,
          32.13,
          41.33,
          39.51,
          36.84,
          52.12,
          47.75,
          54.32,
          43.81,
          47.3,
          35.01,
          32.23,
          37.0,
          41.5,
          47.76,
          36.83,
          30.12,
          33.76,
          27.97,
          29.68,
          29.15,
          33.78,
          40.64,
          46.43,
          45.91,
          34.26,
          36.55,
          29.61,
          33.79,
          42.99,
          48.96,
          40.52,
          45.44,
          45.05,
          34.33,
          46.83,
          38.42,
          31.41,
          25.84,
          23.88,
          19.6,
          29.64,
          36.23,
          47.84,
          45.32,
          41.36,
          26.11,
          29.78,
          35.82,
          39.91,
          50.87,
          46.44,
          47.69,
          53.41,
          48.19,
          53.73,
          53.63,
          60.62,
          49.64,
          55.04,
          43.85,
          43.25,
          36.92,
          49.52,
          51.19,
          47.59,
          37.59,
          46.11,
          40.28,
          42.58,
          36.36,
          43.41,
          31.29,
          31.84,
          26.1,
          29.9,
          21.75,
          19.3,
          24.8,
          24.36,
          20.37,
          23.07,
          23.1,
          29.13,
          28.46,
          17.73,
          18.06,
          23.35,
          23.48,
          36.29,
          39.06,
          48.19,
          45.32,
          44.1,
          107.88,
          35.42,
          28.29,
          34.84,
          30.02,
          26.08,
          19.9,
          18.19,
          17.47,
          25.94,
          26.31,
          26.53,
          31.98,
          28.06,
          35.6,
          35.38,
          32.87,
          32.49,
          32.97,
          35.07,
          35.67,
          32.5,
          33.14,
          20.65,
          27.22,
          25.8,
          22.86,
          19.74,
          15.86,
          19.2,
          27.31,
          31.76,
          29.52,
          25.82,
          20.47,
          19.94,
          16.57,
          20.46,
          30.57,
          38.25,
          32.72,
          36.05,
          37.03,
          35.82,
          30.79,
          33.6,
          34.59,
          40.36,
          28.93,
          28.78,
          23.86,
          27.59,
          23.81,
          24.79,
          32.24,
          30.59,
          33.31,
          29.4,
          30.97,
          28.23,
          29.65,
          23.62,
          27.65,
          23.81,
          27.6,
          29.54,
          25.32,
          30.8,
          31.85,
          23.02,
          29.45,
          28.1,
          36.17,
          33.89,
          34.66,
          29.79,
          34.36,
          36.36,
          29.48,
          34.2,
          30.49,
          36.2,
          36.22,
          28.96,
          32.59,
          36.83,
          27.2,
          34.21,
          32.1,
          40.01,
          29.49,
          38.2,
          36.01,
          36.08,
          34.06,
          36.01,
          33.45,
          30.5,
          24.95,
          24.71,
          29.73,
          33.46,
          51.08,
          43.64,
          33.76,
          27.67,
          24.27,
          23.27,
          27.49,
          23.11,
          25.88,
          37.94,
          31.96,
          26.47,
          28.6,
          24.15,
          25.76,
          21.18,
          34.39,
          26.62,
          42.65,
          31.12,
          45.19,
          24.56,
          28.96,
          28.1,
          25.77,
          29.11,
          31.12,
          15.57,
          12.87,
          15.34,
          26.26,
          37.37,
          21.89,
          27.57,
          21.49,
          42.78,
          37.18,
          35.56,
          34.16,
          24.74,
          21.08,
          18.37,
          16.23,
          21.94,
          37.46,
          37.45,
          36.86,
          31.97,
          29.52,
          44.6,
          45.09,
          51.31,
          41.36,
          45.7,
          39.22,
          34.74,
          31.38,
          36.03,
          37.49,
          36.44,
          47.69,
          43.88,
          47.39,
          40.78,
          42.74,
          34.23,
          42.52,
          31.22,
          43.28,
          37.15,
          39.03,
          45.83,
          35.05,
          43.48,
          40.28,
          42.6,
          45.7,
          39.46,
          45.53,
          43.83,
          47.47,
          44.32,
          47.71,
          47.64,
          40.66,
          43.71,
          37.8,
          39.24,
          52.73,
          46.23,
          52.3,
          37.94,
          46.27,
          34.21,
          49.75,
          50.35,
          54.28,
          61.11,
          55.81,
          51.41,
          61.06,
          61.42,
          48.04,
          52.54,
          49.95,
          40.59
        ]
      ]
    }
  },
  "10062-003": {
    "reaction": {
      "1": {
        "x4_code": "(94-PU-242(N,0),,EN)",
        "0": {
          "code": [
            "94-PU-242",
            [
              "N,0"
            ],
            ",,EN"
          ],
          "type": null,
          "target": "94-PU-242",
          "process": "N,0",
          "sf49": ",,EN",
          "sf4": null,
          "sf5": null,
          "sf6": "EN",
          "sf7": null,
          "sf8": null,
          "sf9": null
        },
        "type": null,
        "free_text": ""
      },
      "2": {
        "x4_code": "(94-PU-242(N,F),,WID,,S0)",
        "0": {
          "code": [
            "94-PU-242",
            [
              "N,F"
            ],
            ",,WID,,S0"
          ],
          "type": null,
          "target": "94-PU-242",
          "process": "N,F",
          "sf49": ",,WID,,S0",
          "sf4": null,
          "sf5": null,
          "sf6": "WID",
          "sf7": null,
          "sf8": "S0",
          "sf9": null
        },
        "type": null,
        "free_text": ""
      },
      "3": {
        "x4_code": "(94-PU-242(N,F),,WID)",
        "0": {
          "code": [
            "94-PU-242",
            [
              "N,F"
            ],
            ",,WID"
          ],
          "type": null,
          "target": "94-PU-242",
          "process": "N,F",
          "sf49": ",,WID",
          "sf4": null,
          "sf5": null,
          "sf6": "WID",
          "sf7": null,
          "sf8": null,
          "sf9": null
        },
        "type": null,
        "free_text": ""
      }
    },
    "extra_information": {
      "analysis": {
        "0": [
          {
            "x4_code": null,
            "free_txt": [
              "Resonance energies determined by calculating the",
              " centroid of the resonance."
            ]
          }
        ]
      },
      "err-analys": {
        "0": [
          {
            "x4_code": "(DATA-ERR)",
            "free_txt": [
              " No information on source of uncertainties."
            ]
          }
        ]
      }
    },
    "common": null,
    "data": {
      "heads": [
        "DATA      1",
        "DATA      2",
        "DATA-ERR  2",
        "DATA      3"
      ],
      "units": [
        "EV",
        "B*EV",
        "B*EV",
        "MILLI-EV"
      ],
      "data": [
        [
          53.4,
          67.5,
          88.2,
          107.1,
          131.0,
          149.2,
          204.3,
          214.6,
          231.9,
          272.2,
          302.1,
          319.0,
          331.2,
          380.7,
          482.4,
          504.5,
          535.1,
          545.8,
          694.0,
          714.5,
          737.1,
          757.1,
          788.2
        ],
        [
          1.5,
          0.29,
          0.029,
          0.53,
          0.21,
          0.35,
          0.5,
          0.28,
          0.22,
          0.38,
          0.25,
          0.58,
          0.627,
          0.38,
          1.803,
          0.83,
          0.71,
          0.69,
          1.373,
          0.894,
          2.692,
          11.5,
          4.67
        ],
        [
          0.08,
          0.02,
          0.003,
          0.03,
          0.01,
          0.02,
          0.03,
          0.02,
          0.02,
          0.03,
          0.02,
          0.04,
          0.04,
          0.04,
          0.15,
          0.08,
          0.06,
          0.07,
          0.14,
          0.11,
          0.32,
          0.14,
          0.81
        ],
        [
          0.044,
          0.077,
          0.032,
          0.051,
          0.048,
          0.049,
          0.049,
          0.19,
          0.074,
          0.091,
          0.11,
          0.23,
          0.18,
          0.084,
          null,
          null,
          null,
          null,
          null,
          null,
          null,
          4.5,
          1.5
        ]
      ]
    }
  },
  "10062-005": {
    "reaction": {
      "0": {
        "x4_code": "(94-PU-242(N,F),,SIG)",
        "0": {
          "code": [
            "94-PU-242",
            [
              "N,F"
            ],
            ",,SIG"
          ],
          "type": null,
          "target": "94-PU-242",
          "process": "N,F",
          "sf49": ",,SIG",
          "sf4": null,
          "sf5": null,
          "sf6": "SIG",
          "sf7": null,
          "sf8": null,
          "sf9": null
        },
        "type": null,
        "free_text": ""
      }
    },
    "extra_information": {
      "err-analys": {
        "0": [
          {
            "x4_code": "(ERR-T)",
            "free_txt": [
              " Includes both statistical and systematic",
              " uncertainties."
            ]
          },
          {
            "x4_code": "(ERR-SYS,,,1.0)",
            "free_txt": [
              " Systematic uncertainty.",
              "Systematic uncertainties include uncertainties in:"
            ]
          },
          {
            "x4_code": "(ERR-1,,,1.0)",
            "free_txt": [
              " sample mass: 1.5%"
            ]
          },
          {
            "x4_code": "(ERR-2,1.6,1.9,1.0)",
            "free_txt": [
              " solid angle:",
              "                     1.6% at 90 degr., 1.9% at 55 degr."
            ]
          },
          {
            "x4_code": "(ERR-3,0.5,0.9,1.0)",
            "free_txt": [
              " film reading:",
              "                     0.9% at 90 degr., 0.5% at 55 degr."
            ]
          },
          {
            "x4_code": "(ERR-4,2.6,2.9,1.0)",
            "free_txt": [
              " detector window thickness:",
              "                     2.9% at 90 degr., 2.6% at 55 degr."
            ]
          },
          {
            "x4_code": "(ERR-5,,,1.0)",
            "free_txt": [
              " flux determination: 2.9%"
            ]
          },
          {
            "x4_code": "(ERR-6,1.5,2.1,1.0)",
            "free_txt": [
              " baseline shift:",
              "                     1.5% at 55 degr., 2.1% at 90 degr."
            ]
          }
        ]
      },
      "monitor": {
        "0": [
          {
            "x4_code": "(92-U-235(N,F),,SIG)",
            "free_txt": [
              "Interpolation from 1 keV to 100 keV was done",
              "  by comparison with previous measurements, see",
              "  Browne, et al., LA-4095 (1970)."
            ]
          }
        ]
      },
      "status": {
        "0": [
          {
            "x4_code": "(TABLE)",
            "free_txt": [
              " Data received on magnetic tape, Seeger, August",
              "        1970."
            ]
          }
        ]
      }
    },
    "common": {
      "heads": [
        "ERR-SYS",
        "ERR-1",
        "ERR-5"
      ],
      "units": [
        "PER-CENT",
        "PER-CENT",
        "PER-CENT"
      ],
      "data": [
        [
          4.4
        ],
        [
          1.5
        ],
        [
          2.9
        ]
      ]
    },
    "data": {
      "heads": [
        "EN",
        "DATA",
        "ERR-T"
      ],
      "units": [
        "EV",
        "B",
        "PER-CENT"
      ],
      "data": [
        [
          1008.41,
          1012.56,
          1016.74,
          1020.95,
          1025.18,
          1029.44,
          1033.72,
          1038.03,
          1042.37,
          1046.74,
          1051.13,
          1055.56,
          1060.0,
          1064.48,
          1068.99,
          1073.52,
          1078.09,
          1082.68,
          1087.3,
          1091.95,
          1096.63,
          1101.35,
          1106.09,
          1110.86,
          1115.66,
          1120.5,
          1125.37,
          1130.26,
          1135.19,
          1140.16,
          1145.15,
          1150.18,
          1155.24,
          1160.34,
          1165.46,
          1170.63,
          1175.82,
          1181.05,
          1186.32,
          1191.62,
          1196.96,
          1202.33,
          1207.74,
          1213.19,
          1218.67,
          1224.19,
          1229.75,
          1235.35,
          1240.98,
          1246.65,
          1252.36,
          1258.12,
          1263.91,
          1269.74,
          1275.61,
          1281.52,
          1287.47,
          1293.47,
          1299.5,
          1305.58,
          1311.7,
          1317.87,
          1324.08,
          1330.33,
          1336.63,
          1342.97,
          1349.35,
          1355.79,
          1362.27,
          1368.79,
          1375.36,
          1381.98,
          1388.65,
          1395.36,
          1402.13,
          1408.94,
          1415.81,
          1422.72,
          1429.68,
          1436.7,
          1443.77,
          1450.89,
          1458.06,
          1465.28,
          1472.56,
          1479.9,
          1487.29,
          1494.73,
          1502.23,
          1509.79,
          1517.4,
          1525.07,
          1532.8,
          1540.59,
          1548.44,
          1556.35,
          1564.32,
          1572.35,
          1580.44,
          1588.6,
          1596.82,
          1605.1,
          1613.44,
          1621.86,
          1630.33,
          1638.88,
          1647.49,
          1656.17,
          1664.92,
          1673.74,
          1682.63,
          1691.59,
          1700.62,
          1709.72,
          1718.9,
          1728.15,
          1737.48,
          1746.88,
          1756.36,
          1765.91,
          1775.54,
          1785.26,
          1795.05,
          1804.92,
          1814.88,
          1824.91,
          1835.04,
          1845.24,
          1855.53,
          1865.91,
          1876.37,
          1886.92,
          1897.57,
          1908.3,
          1919.12,
          1930.04,
          1941.05,
          1952.15,
          1963.35,
          1974.64,
          1986.04,
          1997.53,
          2009.12,
          2020.81,
          2032.61,
          2044.51,
          2056.51,
          2068.62,
          2080.84,
          2093.16,
          2105.6,
          2118.14,
          2130.8,
          2143.58,
          2156.46,
          2169.47,
          2182.59,
          2195.83,
          2209.19,
          2222.68,
          2236.29,
          2250.02,
          2263.88,
          2277.87,
          2291.99,
          2306.24,
          2320.62,
          2335.14,
          2349.8,
          2364.59,
          2379.53,
          2394.6,
          2409.82,
          2425.19,
          2440.7,
          2456.36,
          2472.18,
          2488.14,
          2504.26,
          2520.54,
          2536.98,
          2553.58,
          2570.34,
          2587.27,
          2604.36,
          2621.63,
          2639.07,
          2656.68,
          2674.47,
          2692.44,
          2710.59,
          2728.92,
          2747.44,
          2766.15,
          2785.05,
          2804.15,
          2823.44,
          2842.93,
          2862.63,
          2882.53,
          2902.64,
          2922.96,
          2943.49,
          2964.24,
          2985.21,
          3006.41,
          3027.83,
          3049.48,
          3071.36,
          3093.48,
          3115.84,
          3138.44,
          3161.29,
          3184.39,
          3207.74,
          3231.35,
          3255.23,
          3279.37,
          3303.77,
          3328.46,
          3353.41,
          3378.66,
          3404.18,
          3430.0,
          3456.11,
          3482.52,
          3509.24,
          3536.26,
          3563.6,
          3591.25,
          3619.23,
          3647.53,
          3676.17,
          3705.15,
          3734.47,
          3764.14,
          3794.17,
          3824.56,
          3855.31,
          3886.43,
          3917.94,
          3949.83,
          3982.1,
          4014.78,
          4047.86,
          4081.35,
          4115.26,
          4149.59,
          4184.35,
          4219.55,
          4255.2,
          4291.3,
          4327.87,
          4364.9,
          4402.41,
          4440.4,
          4478.89,
          4517.88,
          4557.38,
          4597.4,
          4637.95,
          4679.04,
          4720.68,
          4762.88,
          4805.64,
          4848.99,
          4892.92,
          4937.45,
          4982.59,
          5028.36
        ],
        [
          0.046773,
          0.029042,
          0.050268,
          0.02254,
          0.056903,
          0.030508,
          0.057791,
          0.080104,
          0.054776,
          0.044212,
          0.044989,
          0.047601,
          0.035672,
          0.038225,
          0.043075,
          0.036913,
          0.036454,
          0.064196,
          0.039888,
          0.053796,
          0.031549,
          0.04316,
          0.021659,
          0.01882,
          0.031959,
          0.029135,
          0.033908,
          0.027845,
          0.025018,
          0.032856,
          0.037204,
          0.037872,
          0.031952,
          0.046918,
          0.029092,
          0.027787,
          0.02697,
          0.038376,
          0.019368,
          0.026529,
          0.017745,
          0.036831,
          0.027457,
          0.037948,
          0.027517,
          0.027576,
          0.039508,
          0.029027,
          0.028335,
          0.045863,
          0.035339,
          0.04486,
          0.045573,
          0.028724,
          0.040676,
          0.024452,
          0.03536,
          0.024365,
          0.044909,
          0.026913,
          0.028105,
          0.066004,
          0.065095,
          0.041108,
          0.059864,
          0.036864,
          0.028248,
          0.060737,
          0.034959,
          0.04427,
          0.03247,
          0.044208,
          0.036909,
          0.045296,
          0.063523,
          0.044236,
          0.048376,
          0.043548,
          0.028211,
          0.035575,
          0.027671,
          0.03362,
          0.046138,
          0.049826,
          0.039253,
          0.033839,
          0.026355,
          0.024482,
          0.033346,
          0.023676,
          0.037887,
          0.028728,
          0.033678,
          0.028617,
          0.02723,
          0.020939,
          0.023322,
          0.033393,
          0.028688,
          0.038231,
          0.028157,
          0.028154,
          0.02874,
          0.037193,
          0.024338,
          0.041268,
          0.027409,
          0.038118,
          0.036982,
          0.022031,
          0.02277,
          0.049776,
          0.0331,
          0.02457,
          0.03151,
          0.032344,
          0.041077,
          0.072325,
          0.048706,
          0.026768,
          0.022141,
          0.027614,
          0.046717,
          0.063149,
          0.082611,
          0.12655,
          0.31202,
          0.21717,
          0.049216,
          0.038788,
          0.066198,
          0.050104,
          0.028478,
          0.035003,
          0.027547,
          0.047089,
          0.027427,
          0.030007,
          0.03133,
          0.033979,
          0.043767,
          0.03485,
          0.048611,
          0.065451,
          0.055771,
          0.038462,
          0.03597,
          0.024435,
          0.033725,
          0.037114,
          0.026583,
          0.037146,
          0.025217,
          0.041152,
          0.045864,
          0.040317,
          0.051592,
          0.045916,
          0.06175,
          0.07131,
          0.066656,
          0.045488,
          0.068383,
          0.06348,
          0.056307,
          0.071286,
          0.049863,
          0.055037,
          0.060487,
          0.043791,
          0.056696,
          0.061401,
          0.052927,
          0.038628,
          0.036938,
          0.054438,
          0.028082,
          0.042882,
          0.040233,
          0.055106,
          0.060929,
          0.038684,
          0.042354,
          0.024465,
          0.044829,
          0.044965,
          0.041886,
          0.025743,
          0.029186,
          0.041263,
          0.04128,
          0.04568,
          0.046873,
          0.05351,
          0.059806,
          0.03736,
          0.048605,
          0.034669,
          0.04486,
          0.025614,
          0.044619,
          0.032757,
          0.037619,
          0.049266,
          0.045318,
          0.049345,
          0.04374,
          0.048374,
          0.044649,
          0.066668,
          0.10166,
          0.065633,
          0.055972,
          0.044089,
          0.043182,
          0.042945,
          0.038653,
          0.02602,
          0.045101,
          0.03382,
          0.039612,
          0.040266,
          0.048655,
          0.042043,
          0.035773,
          0.047845,
          0.050279,
          0.043606,
          0.053945,
          0.058837,
          0.056592,
          0.054454,
          0.079729,
          0.062699,
          0.050914,
          0.038795,
          0.01739,
          0.019334,
          0.028698,
          0.021922,
          0.04176,
          0.029666,
          0.042235,
          0.031701,
          0.03587,
          0.031258,
          0.041602,
          0.040657,
          0.051541,
          0.042942,
          0.050694,
          0.033429,
          0.046202,
          0.033788,
          0.044043,
          0.02666,
          0.029484,
          0.017325,
          0.029877,
          0.045544,
          0.041878,
          0.042532,
          0.035179,
          0.049587,
          0.04664,
          0.081801,
          0.10792,
          0.090818,
          0.045982,
          0.041208
        ],
        [
          45.86,
          82.54,
          57.17,
          103.96,
          54.43,
          78.49,
          46.27,
          29.74,
          47.09,
          47.18,
          55.32,
          43.43,
          67.57,
          60.52,
          57.14,
          57.87,
          65.93,
          34.91,
          59.85,
          49.96,
          73.71,
          56.94,
          104.17,
          119.49,
          70.2,
          79.57,
          59.89,
          82.67,
          91.02,
          62.79,
          63.55,
          51.76,
          72.51,
          52.89,
          78.65,
          81.01,
          76.41,
          73.83,
          112.94,
          79.28,
          122.31,
          69.27,
          81.05,
          54.51,
          80.65,
          71.12,
          50.29,
          77.32,
          65.79,
          54.09,
          63.76,
          52.64,
          49.79,
          77.35,
          57.8,
          89.22,
          64.04,
          89.23,
          51.85,
          81.28,
          77.19,
          41.95,
          37.66,
          55.76,
          40.7,
          61.54,
          76.12,
          45.44,
          62.71,
          50.88,
          66.75,
          50.13,
          59.45,
          42.74,
          39.28,
          51.62,
          47.08,
          53.77,
          74.79,
          54.7,
          75.87,
          64.56,
          42.69,
          39.48,
          55.41,
          53.68,
          78.53,
          84.68,
          65.4,
          87.0,
          47.94,
          72.94,
          57.94,
          72.96,
          63.63,
          96.31,
          86.34,
          58.5,
          71.34,
          51.91,
          72.31,
          61.18,
          70.76,
          57.38,
          81.91,
          51.58,
          73.34,
          39.97,
          53.41,
          89.6,
          85.98,
          45.06,
          54.89,
          78.81,
          63.89,
          55.24,
          51.8,
          33.24,
          39.09,
          73.15,
          80.31,
          63.64,
          46.42,
          32.44,
          31.24,
          29.05,
          18.06,
          57.69,
          37.24,
          52.35,
          30.98,
          45.6,
          58.7,
          54.18,
          70.37,
          45.68,
          70.39,
          64.17,
          55.68,
          57.54,
          40.46,
          56.16,
          39.28,
          34.87,
          33.49,
          51.48,
          48.31,
          75.47,
          49.0,
          52.68,
          70.56,
          52.16,
          73.59,
          47.75,
          45.21,
          48.87,
          36.54,
          44.12,
          32.15,
          32.7,
          29.53,
          44.21,
          30.72,
          35.05,
          38.73,
          28.31,
          41.98,
          34.11,
          36.27,
          45.01,
          38.35,
          32.6,
          36.61,
          49.24,
          51.8,
          33.83,
          64.31,
          48.3,
          48.28,
          37.91,
          31.08,
          48.62,
          45.52,
          69.82,
          37.09,
          43.28,
          40.24,
          67.76,
          51.71,
          46.69,
          38.53,
          36.34,
          41.71,
          39.01,
          31.39,
          47.56,
          40.88,
          51.61,
          41.75,
          65.63,
          41.79,
          53.58,
          48.16,
          34.11,
          36.34,
          35.54,
          44.08,
          36.61,
          43.63,
          29.32,
          29.52,
          29.15,
          32.6,
          37.31,
          37.96,
          44.49,
          44.77,
          63.4,
          40.65,
          52.32,
          41.74,
          47.03,
          35.34,
          38.5,
          51.56,
          35.36,
          36.61,
          45.55,
          34.41,
          32.54,
          33.87,
          41.72,
          29.35,
          40.03,
          37.95,
          48.0,
          86.4,
          73.64,
          60.67,
          71.46,
          40.97,
          58.53,
          38.85,
          56.54,
          45.79,
          57.24,
          43.41,
          50.24,
          38.13,
          50.02,
          38.79,
          56.17,
          43.05,
          56.25,
          42.9,
          63.76,
          56.41,
          84.02,
          49.34,
          41.87,
          53.83,
          42.65,
          57.81,
          41.68,
          42.76,
          37.7,
          35.69,
          40.15,
          44.85,
          44.48
        ]
      ]
    }
  },
  "10062-006": {
    "reaction": {
      "0": {
        "x4_code": "(94-PU-242(N,F),,SIG)",
        "0": {
          "code": [
            "94-PU-242",
            [
              "N,F"
            ],
            ",,SIG"
          ],
          "type": null,
          "target": "94-PU-242",
          "process": "N,F",
          "sf49": ",,SIG",
          "sf4": null,
          "sf5": null,
          "sf6": "SIG",
          "sf7": null,
          "sf8": null,
          "sf9": null
        },
        "type": null,
        "free_text": ""
      }
    },
    "extra_information": {
      "err-analys": {
        "0": [
          {
            "x4_code": "(ERR-T)",
            "free_txt": [
              " Includes both statistical and systematic",
              " uncertainties."
            ]
          },
          {
            "x4_code": "(ERR-SYS,,,1.0)",
            "free_txt": [
              " Systematic uncertainty.",
              "Systematic uncertainties include uncertainties in:"
            ]
          },
          {
            "x4_code": "(ERR-1,,,1.0)",
            "free_txt": [
              " sample mass: 1.5%"
            ]
          },
          {
            "x4_code": "(ERR-2,1.6,1.9,1.0)",
            "free_txt": [
              " solid angle:",
              "                     1.6% at 90 degr., 1.9% at 55 degr."
            ]
          },
          {
            "x4_code": "(ERR-3,0.5,0.9,1.0)",
            "free_txt": [
              " film reading:",
              "                     0.9% at 90 degr., 0.5% at 55 degr."
            ]
          },
          {
            "x4_code": "(ERR-4,2.6,2.9,1.0)",
            "free_txt": [
              " detector window thickness:",
              "                     2.9% at 90 degr., 2.6% at 55 degr."
            ]
          },
          {
            "x4_code": "(ERR-5,,,1.0)",
            "free_txt": [
              " flux determination: 2.9%"
            ]
          },
          {
            "x4_code": "(ERR-6,1.5,2.1,1.0)",
            "free_txt": [
              " baseline shift:",
              "                     1.5% at 55 degr., 2.1% at 90 degr."
            ]
          }
        ]
      },
      "monit-ref": {
        "0": [
          {
            "x4_code": "(,W.G.Davey,J,NSE,32,35,1968)",
            "free_txt": []
          }
        ]
      },
      "monitor": {
        "0": [
          {
            "x4_code": "(92-U-235(N,F),,SIG)",
            "free_txt": [
              " Flux relative to 235U fission of",
              "  Davey, modified to 55 degrees."
            ]
          }
        ]
      },
      "status": {
        "0": [
          {
            "x4_code": "(TABLE)",
            "free_txt": [
              " Data received on magnetic tape, Seeger, August",
              "        1970."
            ]
          }
        ]
      }
    },
    "common": {
      "heads": [
        "ERR-SYS",
        "ERR-1",
        "ERR-5"
      ],
      "units": [
        "PER-CENT",
        "PER-CENT",
        "PER-CENT"
      ],
      "data": [
        [
          5.8
        ],
        [
          1.5
        ],
        [
          2.9
        ]
      ]
    },
    "data": {
      "heads": [
        "EN",
        "DATA",
        "ERR-T"
      ],
      "units": [
        "EV",
        "B",
        "PER-CENT"
      ],
      "data": [
        [
          99262.8,
          101314.0,
          103430.0,
          105612.0,
          107864.0,
          110189.0,
          112590.0,
          115071.0,
          117634.0,
          120284.0,
          123025.0,
          125860.0,
          128794.0,
          131832.0,
          134979.0,
          138240.0,
          141620.0,
          145126.0,
          148764.0,
          152541.0,
          156463.0,
          160538.0,
          164774.0,
          169181.0,
          173766.0,
          178541.0,
          183515.0,
          188700.0,
          194107.0,
          199751.0,
          205644.0,
          211802.0,
          218241.0,
          224977.0,
          232031.0,
          239422.0,
          247171.0,
          255303.0,
          263842.0,
          272818.0,
          282259.0,
          292199.0,
          293148.0,
          297293.0,
          301526.0,
          305851.0,
          310269.0,
          314783.0,
          319397.0,
          324113.0,
          328934.0,
          333863.0,
          338904.0,
          344060.0,
          349335.0,
          354732.0,
          360255.0,
          365907.0,
          371694.0,
          377619.0,
          383687.0,
          389903.0,
          396271.0,
          402796.0,
          409483.0,
          416338.0,
          423367.0,
          430576.0,
          437970.0,
          445556.0,
          453341.0,
          461332.0,
          469536.0,
          477961.0,
          486614.0,
          495505.0,
          504641.0,
          514032.0,
          523689.0,
          533619.0,
          543835.0,
          554347.0,
          565167.0,
          576306.0,
          587778.0,
          599597.0,
          611775.0,
          624328.0,
          637271.0,
          650621.0,
          664395.0,
          678610.0,
          693287.0,
          708446.0,
          724106.0,
          740292.0,
          757027.0,
          774335.0,
          792244.0,
          810782.0,
          829978.0,
          849863.0,
          870472.0,
          891839.0,
          914003.0,
          937004.0,
          960884.0,
          985688.0,
          1011460.0,
          1038270.0,
          1066150.0,
          1095170.0,
          1125390.0,
          1156880.0,
          1189710.0,
          1223950.0,
          1259700.0,
          1297030.0,
          1336050.0,
          1376860.0,
          1419570.0,
          1464290.0,
          1511160.0,
          1560320.0,
          1611920.0,
          1666120.0,
          1723090.0,
          1783050.0,
          1846180.0,
          1912730.0,
          1982950.0,
          2057100.0,
          2135490.0,
          2218440.0,
          2306330.0,
          2399540.0,
          2498530.0,
          2603760.0,
          2715790.0,
          2835200.0,
          2962660.0
        ],
        [
          0.021186,
          0.017337,
          0.017643,
          0.016546,
          0.023882,
          0.01352,
          0.024526,
          0.015606,
          0.024355,
          0.016143,
          0.017128,
          0.022853,
          0.022138,
          0.023204,
          0.02467,
          0.028954,
          0.031027,
          0.026965,
          0.033643,
          0.031213,
          0.026811,
          0.021337,
          0.026727,
          0.029288,
          0.03013,
          0.042681,
          0.029918,
          0.04746,
          0.043659,
          0.049704,
          0.050463,
          0.04687,
          0.042023,
          0.045988,
          0.052917,
          0.063185,
          0.070947,
          0.064088,
          0.060514,
          0.070236,
          0.079972,
          0.077232,
          0.079459,
          0.074911,
          0.076048,
          0.078875,
          0.084838,
          0.088772,
          0.10948,
          0.11517,
          0.1121,
          0.11641,
          0.10385,
          0.098308,
          0.088217,
          0.144,
          0.12768,
          0.11168,
          0.11842,
          0.136,
          0.13578,
          0.14769,
          0.14632,
          0.14967,
          0.15985,
          0.14868,
          0.1398,
          0.14893,
          0.1574,
          0.16042,
          0.17898,
          0.21493,
          0.22512,
          0.22689,
          0.24318,
          0.27005,
          0.27853,
          0.27781,
          0.28117,
          0.3283,
          0.33364,
          0.33066,
          0.36356,
          0.40055,
          0.4139,
          0.45438,
          0.50146,
          0.52284,
          0.4976,
          0.56611,
          0.59712,
          0.58397,
          0.62214,
          0.62717,
          0.75367,
          0.80665,
          0.81065,
          0.86135,
          0.89214,
          0.92349,
          1.0538,
          1.0979,
          1.2043,
          1.2802,
          1.29,
          1.3037,
          1.3196,
          1.3473,
          1.3414,
          1.4366,
          1.5323,
          1.4675,
          1.503,
          1.5318,
          1.5019,
          1.4984,
          1.4672,
          1.3872,
          1.4392,
          1.4317,
          1.439,
          1.4038,
          1.37,
          1.356,
          1.3749,
          1.4114,
          1.4338,
          1.5046,
          1.4823,
          1.4781,
          1.4576,
          1.4353,
          1.5424,
          1.4763,
          1.4773,
          1.5008,
          1.4512,
          1.4406,
          1.4177,
          1.4333,
          1.4746
        ],
        [
          22.7,
          27.53,
          24.68,
          26.13,
          29.08,
          17.96,
          21.12,
          19.13,
          30.81,
          20.92,
          18.58,
          13.89,
          16.63,
          13.95,
          12.91,
          12.69,
          13.72,
          13.2,
          12.84,
          14.14,
          23.01,
          15.09,
          11.9,
          11.02,
          11.3,
          14.72,
          16.79,
          8.55,
          11.62,
          12.88,
          15.34,
          9.51,
          7.82,
          9.32,
          12.06,
          8.93,
          8.49,
          7.63,
          9.89,
          7.77,
          6.68,
          6.4,
          7.51,
          7.03,
          7.23,
          7.34,
          7.37,
          7.1,
          10.38,
          6.85,
          7.02,
          6.64,
          6.75,
          7.15,
          7.04,
          10.21,
          7.12,
          7.0,
          7.32,
          7.37,
          6.74,
          6.75,
          6.57,
          6.61,
          6.59,
          6.7,
          6.7,
          6.58,
          6.75,
          7.05,
          7.5,
          10.11,
          6.44,
          6.48,
          8.82,
          6.55,
          6.49,
          6.92,
          7.41,
          7.38,
          7.44,
          6.9,
          6.44,
          6.29,
          6.4,
          6.59,
          6.26,
          6.24,
          6.49,
          7.12,
          6.36,
          6.83,
          6.13,
          6.4,
          6.39,
          6.19,
          6.49,
          6.39,
          6.29,
          6.38,
          6.4,
          6.67,
          6.43,
          6.38,
          6.28,
          6.12,
          6.35,
          6.11,
          6.29,
          6.88,
          6.12,
          6.17,
          6.48,
          6.11,
          6.11,
          6.13,
          6.18,
          6.68,
          6.16,
          6.11,
          6.17,
          6.33,
          6.39,
          6.09,
          6.09,
          6.13,
          6.18,
          6.13,
          6.2,
          6.21,
          6.18,
          6.2,
          6.36,
          6.16,
          6.19,
          6.14,
          6.13,
          6.31,
          6.42,
          6.37,
          6.7
        ]
      ]
    }
  }
}