{
  "bib": {
    "title": "Differential excitation curves from thick target neutron spectra",
    "authors": [
      {
        "name": "W.R.Wylie"
      },
      {
        "name": "R.M.Bahnsen"
      },
      {
        "name": "H.W.Lefevre"
      }
    ],
    "institutes": [
      {
        "x4_code": "(1USAORE)",
        "free_txt": []
      }
    ],
    "references": {
      "0": [
        {
          "x4_code": "(J,NIM,79,245,1970)",
          "free_txt": [],
          "publication_year": "1970",
          "doi": "10.1016/0029-554X(70)90147-3"
        }
      ]
    },
    "facility": {
      "0": [
        {
          "x4_code": "(VDG,1USAORE)",
          "free_txt": [],
          "facility_type": "(VDG)",
          "insitute": "(1USAORE)"
        }
      ]
    },
    "history": [
      {
        "x4_code": "(20170307C)",
        "free_txt": [
          " BP"
        ]
      }
    ]
  },
  "C0350-001": {
    "extra_information": {
      "analysis": {
        "0": [
          {
            "x4_code": null,
            "free_txt": [
              "Spectrum transformations: Transformation Fortran",
              "programs allow one to transform time-of-flight data",
              "directly to excitation curves; generate",
              "time-of-flight spectra for any experimental",
              "parameters from tabulated excitation curves; or to",
              "obtain absolute neutron energy spectra from",
              "excitation curves and from time-of-flight data."
            ]
          }
        ]
      },
      "detector": {
        "0": [
          {
            "x4_code": "(SCIN)",
            "free_txt": [
              " 1.27 cm thick plastic scintillator coupled to",
              "an XP 1040 photomultiplier tube."
            ]
          }
        ]
      },
      "facility": {
        "0": [
          {
            "x4_code": "(VDG,1USAORE)",
            "free_txt": []
          }
        ]
      },
      "method": {
        "0": [
          {
            "x4_code": "(TOF,TTM)",
            "free_txt": [
              " Thick target spectra from a single final",
              "state."
            ]
          }
        ]
      },
      "rel-ref": {
        "0": [
          {
            "x4_code": "(M,,W.R.Wylie+,J,BAP,11,903,1966)",
            "free_txt": []
          },
          {
            "x4_code": "(M,,W.R.Wylie+,J,BAP,12,894,1967)",
            "free_txt": [
              " Thick target neutron",
              "yields 12C(d,n) tests."
            ]
          }
        ]
      }
    }
  },
  "C0350-002": {
    "reaction": {
      "0": {
        "x4_code": "(8-O-16(D,N)9-F-17,PAR,DA)",
        "0": {
          "code": [
            "8-O-16",
            [
              "D,N"
            ],
            "9-F-17,PAR,DA"
          ],
          "type": null,
          "target": "8-O-16",
          "process": "D,N",
          "sf49": "9-F-17,PAR,DA",
          "sf4": "9-F-17",
          "sf5": "PAR",
          "sf6": "DA",
          "sf7": null,
          "sf8": null,
          "sf9": null
        },
        "type": null,
        "free_text": ""
      }
    },
    "extra_information": {
      "status": {
        "0": [
          {
            "x4_code": "(CURVE)",
            "free_txt": [
              " Fig. 5, page 250."
            ]
          }
        ]
      }
    },
    "common": {
      "heads": [
        "ANG",
        "E-LVL"
      ],
      "units": [
        "ADEG",
        "MEV"
      ],
      "data": [
        [
          0.0
        ],
        [
          0.0
        ]
      ]
    },
    "data": {
      "heads": [
        "EN",
        "DATA"
      ],
      "units": [
        "MEV",
        "MB/SR"
      ],
      "data": [
        [
          2.048,
          2.062,
          2.071,
          2.083,
          2.089,
          2.103,
          2.112,
          2.121,
          2.132,
          2.143,
          2.151,
          2.162,
          2.173,
          2.184,
          2.194,
          2.203,
          2.211,
          2.222,
          2.232,
          2.241,
          2.252,
          2.26,
          2.273,
          2.284,
          2.292,
          2.3,
          2.311,
          2.322,
          2.333,
          2.341,
          2.352,
          2.36,
          2.371,
          2.381,
          2.389,
          2.398,
          2.411,
          2.419,
          2.433,
          2.441,
          2.452,
          2.463,
          2.471,
          2.479,
          2.49,
          2.504,
          2.512,
          2.523,
          2.531,
          2.542,
          2.55,
          2.561,
          2.569,
          2.583,
          2.594,
          2.602,
          2.61,
          2.626,
          2.632,
          2.643,
          2.654,
          2.665,
          2.673,
          2.692,
          2.703,
          2.714,
          2.724,
          2.733,
          2.749,
          2.757,
          2.773,
          2.784,
          2.79,
          2.801,
          2.812,
          2.822,
          2.831,
          2.841,
          2.852,
          2.866,
          2.879,
          2.893,
          2.898,
          2.912,
          2.925,
          2.934,
          2.944,
          2.953,
          2.961,
          2.971,
          2.98,
          2.988,
          2.999,
          3.012,
          3.026,
          3.042,
          3.05,
          3.058,
          3.067,
          3.08,
          3.088,
          3.097,
          3.107,
          3.121,
          3.129,
          3.14,
          3.154,
          3.167,
          3.178,
          3.189,
          3.197,
          3.208,
          3.219,
          3.233,
          3.238,
          3.252,
          3.257,
          3.271,
          3.279,
          3.293,
          3.303,
          3.309,
          3.317,
          3.328,
          3.341,
          3.349,
          3.368,
          3.371,
          3.381,
          3.398,
          3.406,
          3.419,
          3.428,
          3.436,
          3.447,
          3.458,
          3.469,
          3.483,
          3.491,
          3.497,
          3.508,
          3.516,
          3.53,
          3.54,
          3.554,
          3.557,
          3.57,
          3.581,
          3.589,
          3.6,
          3.611,
          3.619,
          3.63,
          3.641,
          3.652,
          3.66,
          3.668,
          3.679,
          3.692,
          3.698,
          3.711,
          3.719,
          3.73,
          3.738,
          3.744,
          3.757,
          3.771,
          3.776,
          3.79,
          3.801,
          3.817,
          3.828,
          3.839,
          3.847,
          3.861,
          3.869,
          3.882,
          3.888,
          3.899,
          3.91,
          3.921,
          3.929,
          3.937,
          3.948,
          3.961,
          3.97,
          3.981,
          3.991,
          3.994,
          4.008,
          4.016,
          4.021,
          4.035,
          4.046,
          4.059,
          4.07,
          4.078,
          4.092,
          4.1,
          4.111,
          4.122,
          4.13,
          4.144,
          4.155,
          4.166,
          4.176,
          4.187,
          4.196,
          4.209,
          4.223,
          4.247,
          4.258,
          4.272,
          4.285,
          4.299,
          4.307,
          4.321,
          4.326,
          4.337,
          4.348,
          4.362,
          4.37,
          4.381
        ],
        [
          1.957,
          2.537,
          1.91,
          2.828,
          3.021,
          3.021,
          3.263,
          4.238,
          4.418,
          3.97,
          4.373,
          4.194,
          3.567,
          3.253,
          2.626,
          2.895,
          2.985,
          3.612,
          3.792,
          3.164,
          2.896,
          2.448,
          2.403,
          2.896,
          4.017,
          5.496,
          7.469,
          8.948,
          10.607,
          11.458,
          12.355,
          12.759,
          12.445,
          13.386,
          14.238,
          15.449,
          14.552,
          13.97,
          12.491,
          11.505,
          10.878,
          10.519,
          10.833,
          11.416,
          11.82,
          11.64,
          11.416,
          11.193,
          11.596,
          10.879,
          10.476,
          10.162,
          9.893,
          10.297,
          10.97,
          10.477,
          9.356,
          9.401,
          8.774,
          8.281,
          8.192,
          7.923,
          7.116,
          7.296,
          6.31,
          6.713,
          6.355,
          5.952,
          5.818,
          5.459,
          5.28,
          4.967,
          5.37,
          5.056,
          5.415,
          5.057,
          5.774,
          5.73,
          6.447,
          6.402,
          7.075,
          7.434,
          7.972,
          8.689,
          9.093,
          9.855,
          10.483,
          11.2,
          12.231,
          13.038,
          13.845,
          14.831,
          15.369,
          15.369,
          15.235,
          14.698,
          14.787,
          14.608,
          14.384,
          14.026,
          13.264,
          13.488,
          12.906,
          12.772,
          12.099,
          11.741,
          11.786,
          11.472,
          11.024,
          10.621,
          10.397,
          10.039,
          9.77,
          9.098,
          8.784,
          8.471,
          8.202,
          8.247,
          8.65,
          9.547,
          10.533,
          12.102,
          12.909,
          13.985,
          16.047,
          18.423,
          22.054,
          22.951,
          22.906,
          24.341,
          23.713,
          24.162,
          22.772,
          20.89,
          18.111,
          15.601,
          12.553,
          9.819,
          7.802,
          6.279,
          4.8,
          3.545,
          2.693,
          2.29,
          2.29,
          3.68,
          3.859,
          4.128,
          4.442,
          4.711,
          5.07,
          5.474,
          6.012,
          6.371,
          6.864,
          7.447,
          8.074,
          8.702,
          9.375,
          10.226,
          11.437,
          13.006,
          13.947,
          13.992,
          14.216,
          14.486,
          14.576,
          13.814,
          13.769,
          13.904,
          14.173,
          14.263,
          13.949,
          13.591,
          13.098,
          12.56,
          12.56,
          12.157,
          11.754,
          11.351,
          11.127,
          10.947,
          10.679,
          10.231,
          10.007,
          10.41,
          9.738,
          9.111,
          8.663,
          8.484,
          8.26,
          8.036,
          7.901,
          8.036,
          8.081,
          8.126,
          8.44,
          8.53,
          8.709,
          8.485,
          8.217,
          7.993,
          7.858,
          7.59,
          7.276,
          6.918,
          6.694,
          5.932,
          5.798,
          5.708,
          5.574,
          5.35,
          5.171,
          4.275,
          4.006,
          3.11,
          3.02,
          1.676,
          1.676,
          0.78,
          0.78,
          0.421,
          0.422
        ]
      ]
    }
  },
  "C0350-003": {
    "reaction": {
      "0": {
        "x4_code": "(8-O-16(D,N)9-F-17,PAR,DA)",
        "0": {
          "code": [
            "8-O-16",
            [
              "D,N"
            ],
            "9-F-17,PAR,DA"
          ],
          "type": null,
          "target": "8-O-16",
          "process": "D,N",
          "sf49": "9-F-17,PAR,DA",
          "sf4": "9-F-17",
          "sf5": "PAR",
          "sf6": "DA",
          "sf7": null,
          "sf8": null,
          "sf9": null
        },
        "type": null,
        "free_text": ""
      }
    },
    "extra_information": {
      "comment": {
        "0": [
          {
            "x4_code": null,
            "free_txt": [
              "Compiler comment: The first excited state in the final",
              "nucleus according to ENSDF library is at 0.49533 MeV.",
              "It has been observed in 16O(d,n) reaction. In the",
              "present work, it is defined only as first excited state"
            ]
          }
        ]
      },
      "status": {
        "0": [
          {
            "x4_code": "(CURVE)",
            "free_txt": [
              " Fig. 5, page 250."
            ]
          }
        ]
      }
    },
    "common": {
      "heads": [
        "ANG",
        "LVL-NUMB"
      ],
      "units": [
        "ADEG",
        "NO-DIM"
      ],
      "data": [
        [
          0.0
        ],
        [
          1.0
        ]
      ]
    },
    "data": {
      "heads": [
        "EN",
        "DATA"
      ],
      "units": [
        "MEV",
        "MB/SR"
      ],
      "data": [
        [
          2.6,
          2.611,
          2.619,
          2.63,
          2.641,
          2.652,
          2.666,
          2.671,
          2.687,
          2.69,
          2.701,
          2.717,
          2.734,
          2.745,
          2.753,
          2.761,
          2.772,
          2.78,
          2.796,
          2.804,
          2.813,
          2.821,
          2.832,
          2.84,
          2.848,
          2.862,
          2.873,
          2.889,
          2.908,
          2.941,
          2.957,
          2.96,
          2.973,
          2.984,
          2.992,
          3.003,
          3.014,
          3.022,
          3.033,
          3.039,
          3.049,
          3.063,
          3.074,
          3.109,
          3.12,
          3.134,
          3.142,
          3.153,
          3.161,
          3.172,
          3.183,
          3.194,
          3.202,
          3.213,
          3.216,
          3.232,
          3.24,
          3.248,
          3.259,
          3.27,
          3.284,
          3.292,
          3.3,
          3.313,
          3.322,
          3.335,
          3.379,
          3.39,
          3.398,
          3.406,
          3.422,
          3.444,
          3.455,
          3.458,
          3.474,
          3.48,
          3.488,
          3.504,
          3.507,
          3.523,
          3.526,
          3.537,
          3.545,
          3.558,
          3.569,
          3.578,
          3.586,
          3.597,
          3.61,
          3.621,
          3.627,
          3.637,
          3.651,
          3.656,
          3.67,
          3.678,
          3.689,
          3.697,
          3.711,
          3.714,
          3.73,
          3.744,
          3.749,
          3.76,
          3.773,
          3.779,
          3.787,
          3.795,
          3.801,
          3.814,
          3.825,
          3.841,
          3.852,
          3.871,
          3.877,
          3.885,
          3.899,
          3.907,
          3.915,
          3.929,
          3.942,
          3.948,
          3.961,
          3.969,
          3.98,
          3.988,
          4.002,
          4.01,
          4.016,
          4.032,
          4.037,
          4.043,
          4.056,
          4.065,
          4.073,
          4.089,
          4.1,
          4.108,
          4.116,
          4.133,
          4.146,
          4.152,
          4.163,
          4.165,
          4.179,
          4.187,
          4.198,
          4.209,
          4.22,
          4.233,
          4.236,
          4.244,
          4.261,
          4.274,
          4.28,
          4.288,
          4.301,
          4.47,
          4.484
        ],
        [
          28.879,
          29.952,
          32.1,
          33.532,
          35.322,
          36.396,
          39.26,
          43.556,
          44.63,
          47.494,
          48.21,
          47.852,
          52.506,
          54.296,
          57.518,
          59.666,
          60.74,
          63.246,
          64.678,
          66.468,
          66.468,
          68.974,
          70.405,
          71.121,
          70.048,
          71.479,
          73.627,
          74.701,
          73.269,
          73.985,
          73.985,
          75.775,
          76.491,
          76.849,
          78.639,
          80.787,
          86.873,
          89.379,
          93.317,
          99.403,
          104.415,
          105.489,
          107.995,
          113.722,
          117.66,
          118.376,
          123.388,
          129.116,
          131.622,
          134.128,
          138.066,
          143.078,
          148.448,
          156.323,
          158.829,
          160.619,
          165.273,
          163.841,
          163.483,
          163.483,
          164.557,
          163.483,
          164.557,
          164.557,
          166.705,
          166.347,
          163.841,
          163.483,
          161.335,
          162.409,
          162.051,
          171.001,
          173.149,
          180.667,
          185.679,
          191.764,
          193.912,
          198.566,
          201.788,
          202.504,
          206.442,
          205.726,
          203.578,
          203.22,
          203.22,
          202.504,
          199.64,
          201.43,
          206.8,
          199.64,
          196.06,
          196.418,
          196.06,
          192.838,
          191.407,
          188.543,
          188.543,
          184.247,
          181.025,
          176.729,
          171.001,
          170.643,
          166.347,
          164.915,
          163.841,
          160.619,
          165.631,
          166.347,
          163.483,
          164.199,
          164.199,
          164.557,
          164.557,
          164.557,
          165.631,
          163.841,
          162.767,
          161.335,
          158.113,
          153.817,
          151.311,
          147.016,
          142.004,
          139.14,
          139.14,
          139.856,
          141.288,
          144.868,
          147.732,
          147.732,
          150.238,
          152.027,
          150.238,
          150.596,
          148.806,
          148.448,
          147.016,
          145.584,
          143.436,
          139.856,
          136.276,
          134.486,
          130.19,
          126.968,
          123.03,
          118.734,
          115.512,
          110.858,
          106.563,
          102.983,
          98.687,
          94.391,
          95.823,
          80.071,
          67.184,
          56.444,
          42.84,
          12.411,
          6.325
        ]
      ]
    }
  }
}