{
  "entry": "D8057",
  "last_updated": "2024-03-13",
  "number_of_revisions": "1",
  "histories": [
    {
      "x4_code": "(20230428C)",
      "free_txt": [
        " TZh"
      ]
    },
    {
      "x4_code": "(20230428R)",
      "free_txt": [
        " Received by e-mail from D.Nauruzbayev"
      ]
    }
  ],
  "bib_record": {
    "title": "Low Energy Resonances 22Ne(a,a) in Elastic Scattering",
    "authors": [
      {
        "name": "D.K.Nauruzbayev"
      },
      {
        "name": "A.K.Nurmukhanbetova"
      },
      {
        "name": "V.Z.Goldberg"
      }
    ],
    "institutes": [
      {
        "x4_code": "(4KASNZR)",
        "free_txt": ""
      },
      {
        "x4_code": "(4RUSSUL)",
        "free_txt": ""
      },
      {
        "x4_code": "(1USATAM)",
        "free_txt": ""
      }
    ],
    "references": [
      {
        "x4_code": "(J,PPN,53,312,2022)",
        "free_txt": [],
        "publication_year": "2022",
        "doi": null,
        "pointer": "0"
      }
    ],
    "facilities": [
      {
        "x4_code": "(CYCLO,4KASATN)",
        "free_txt": [
          " DC60 cyclotron"
        ],
        "pointer": "0",
        "facility_type": "(CYCLO)",
        "institute": "(4KASATN)"
      }
    ]
  },
  "reactions": {
    "002": {
      "0": {
        "x4_code": "((2-HE-4(10-NE-20,EL)2-HE-4,,DA,RSD)=(10-NE-20(A,EL)10-NE-20,,DA,RSD))",
        "children": [
          {
            "code": [
              "2-HE-4",
              [
                "10-NE-20,EL"
              ],
              "2-HE-4,,DA,RSD"
            ],
            "type": null,
            "target": "2-HE-4",
            "process": "10-NE-20,EL",
            "sf49": "2-HE-4,,DA,RSD",
            "sf4": "2-HE-4",
            "sf5": null,
            "sf6": "DA",
            "sf7": "RSD",
            "sf8": null,
            "sf9": null
          },
          {
            "code": [
              "10-NE-20",
              [
                "A,EL"
              ],
              "10-NE-20,,DA,RSD"
            ],
            "type": null,
            "target": "10-NE-20",
            "process": "A,EL",
            "sf49": "10-NE-20,,DA,RSD",
            "sf4": "10-NE-20",
            "sf5": null,
            "sf6": "DA",
            "sf7": "RSD",
            "sf8": null,
            "sf9": null
          }
        ],
        "type": "=",
        "free_text": "",
        "pointer": "0"
      }
    },
    "003": {
      "0": {
        "x4_code": "((2-HE-4(10-NE-22,EL)2-HE-4,,DA,RSD)=(10-NE-22(A,EL)10-NE-22,,DA,RSD))",
        "children": [
          {
            "code": [
              "2-HE-4",
              [
                "10-NE-22,EL"
              ],
              "2-HE-4,,DA,RSD"
            ],
            "type": null,
            "target": "2-HE-4",
            "process": "10-NE-22,EL",
            "sf49": "2-HE-4,,DA,RSD",
            "sf4": "2-HE-4",
            "sf5": null,
            "sf6": "DA",
            "sf7": "RSD",
            "sf8": null,
            "sf9": null
          },
          {
            "code": [
              "10-NE-22",
              [
                "A,EL"
              ],
              "10-NE-22,,DA,RSD"
            ],
            "type": null,
            "target": "10-NE-22",
            "process": "A,EL",
            "sf49": "10-NE-22,,DA,RSD",
            "sf4": "10-NE-22",
            "sf5": null,
            "sf6": "DA",
            "sf7": "RSD",
            "sf8": null,
            "sf9": null
          }
        ],
        "type": "=",
        "free_text": "",
        "pointer": "0"
      }
    }
  },
  "data_tables": {
    "001": {
      "common": null
    },
    "002": {
      "common": {
        "heads": [
          "ANG-CM"
        ],
        "units": [
          "ADEG"
        ],
        "data": [
          [
            180.0
          ]
        ]
      },
      "data": {
        "heads": [
          "EN-CM",
          "DATA-CM",
          "ERR-S"
        ],
        "units": [
          "MEV",
          "MB/SR",
          "MB/SR"
        ],
        "data": [
          [
            1.49855,
            1.50099,
            1.50342,
            1.50584,
            1.50828,
            1.51072,
            1.51316,
            1.51559,
            1.51802,
            1.52045,
            1.52291,
            1.52537,
            1.52781,
            1.53024,
            1.53267,
            1.5351,
            1.53754,
            1.53998,
            1.54243,
            1.54488,
            1.54733,
            1.54977,
            1.55221,
            1.55465,
            1.5571,
            1.55954,
            1.56199,
            1.56443,
            1.56688,
            1.56933,
            1.57178,
            1.57423,
            1.57667,
            1.57912,
            1.58157,
            1.58404,
            1.5865,
            1.58895,
            1.59141,
            1.59386,
            1.59631,
            1.59876,
            1.60121,
            1.60366,
            1.60611,
            1.60857,
            1.61103,
            1.61349,
            1.61595,
            1.61841,
            1.62087,
            1.62333,
            1.6258,
            1.62825,
            1.63069,
            1.63314,
            1.6356,
            1.63806,
            1.64052,
            1.64299,
            1.64546,
            1.64792,
            1.65038,
            1.65284,
            1.6553,
            1.65776,
            1.66023,
            1.66269,
            1.66516,
            1.66763,
            1.6701,
            1.67257,
            1.67503,
            1.67749,
            1.67995,
            1.68242,
            1.68489,
            1.68737,
            1.68984,
            1.69231,
            1.69477,
            1.69724,
            1.6997,
            1.70219,
            1.70468,
            1.70715,
            1.70962,
            1.7121,
            1.71456,
            1.71702,
            1.71949,
            1.72197,
            1.72445,
            1.72693,
            1.72941,
            1.73188,
            1.73436,
            1.73685,
            1.73933,
            1.7418,
            1.74428,
            1.74676,
            1.74923,
            1.7517,
            1.75418,
            1.75666,
            1.75913,
            1.76163,
            1.76412,
            1.7666,
            1.76908,
            1.77156,
            1.77405,
            1.77654,
            1.77903,
            1.78152,
            1.784,
            1.78648,
            1.78895,
            1.79143,
            1.79392,
            1.79642,
            1.79892,
            1.80141,
            1.8039,
            1.80638,
            1.80886,
            1.81135,
            1.81384,
            1.81633,
            1.81882,
            1.82132,
            1.82381,
            1.82631,
            1.8288,
            1.83129,
            1.83378,
            1.83627,
            1.83876,
            1.84125,
            1.84375,
            1.84624,
            1.84873,
            1.85122,
            1.85372,
            1.85622,
            1.85872,
            1.86122,
            1.86371,
            1.86621,
            1.86871,
            1.87121,
            1.8737,
            1.87619,
            1.87868,
            1.88119,
            1.88369,
            1.8862,
            1.8887,
            1.89121,
            1.8937,
            1.89619,
            1.89868,
            1.90119,
            1.90369,
            1.9062,
            1.90871,
            1.91122,
            1.91373,
            1.91623,
            1.91874,
            1.92125,
            1.92375,
            1.92625,
            1.92876,
            1.93126,
            1.93378,
            1.93629,
            1.93881,
            1.94132,
            1.94383,
            1.94634,
            1.94884,
            1.95134,
            1.95385,
            1.95637,
            1.95888,
            1.96138,
            1.96388,
            1.96639,
            1.96892,
            1.97145,
            1.97397,
            1.97648,
            1.97899,
            1.9815,
            1.984,
            1.98651,
            1.98903,
            1.99155,
            1.99406,
            1.99657,
            1.99908,
            2.00161,
            2.00413,
            2.00666,
            2.00917,
            2.01169,
            2.0142,
            2.01671,
            2.01923,
            2.02174,
            2.02426,
            2.02678,
            2.0293,
            2.03182,
            2.03435,
            2.03687,
            2.03939,
            2.04191,
            2.04443,
            2.04695,
            2.04946,
            2.05198,
            2.0545,
            2.05702,
            2.05955,
            2.06207,
            2.0646,
            2.06713,
            2.06965,
            2.07218,
            2.0747,
            2.07722,
            2.07974,
            2.08227,
            2.0848,
            2.08733,
            2.08985,
            2.09237,
            2.0949,
            2.09742,
            2.09995,
            2.10248,
            2.10501,
            2.10753,
            2.11005,
            2.11257,
            2.1151,
            2.11763,
            2.12016,
            2.12269,
            2.12522,
            2.12774,
            2.13027,
            2.1328,
            2.13534,
            2.13787,
            2.1404,
            2.14292,
            2.14545,
            2.14798,
            2.15052,
            2.15306,
            2.15559,
            2.15813,
            2.16066,
            2.16318,
            2.16571,
            2.16824,
            2.17078,
            2.17331,
            2.17584,
            2.17837,
            2.1809,
            2.18344,
            2.18598,
            2.18852,
            2.19105,
            2.19359,
            2.19612,
            2.19865,
            2.20118,
            2.20372,
            2.20625,
            2.20879,
            2.21132,
            2.21386,
            2.21641,
            2.21895,
            2.22148,
            2.22401,
            2.22654,
            2.22908,
            2.23162,
            2.23416,
            2.23669,
            2.23923,
            2.24177,
            2.24432,
            2.24686,
            2.2494,
            2.25194,
            2.25448,
            2.25701,
            2.25955,
            2.26209,
            2.26462,
            2.26716,
            2.2697,
            2.27224,
            2.27479,
            2.27734,
            2.27988,
            2.28242,
            2.28496,
            2.2875,
            2.29003,
            2.29257,
            2.29511,
            2.29765,
            2.3002,
            2.30275,
            2.3053,
            2.30785,
            2.31039,
            2.31293,
            2.31547,
            2.31801,
            2.32055,
            2.3231,
            2.32564,
            2.32818,
            2.33073,
            2.33327,
            2.33583,
            2.33839,
            2.34093,
            2.34348,
            2.34602,
            2.34857,
            2.35112,
            2.35366,
            2.3562,
            2.35874,
            2.36128,
            2.36383,
            2.36638,
            2.36893,
            2.37147,
            2.37402,
            2.37657,
            2.37912,
            2.38166,
            2.38421,
            2.38675,
            2.38929,
            2.39183,
            2.39438,
            2.39694,
            2.39949,
            2.40204,
            2.40459,
            2.40714,
            2.40969,
            2.41225,
            2.41479,
            2.41734,
            2.41989,
            2.42245,
            2.425,
            2.42755,
            2.43011,
            2.43267,
            2.43522,
            2.43777,
            2.44032,
            2.44287,
            2.44542,
            2.44797,
            2.45052,
            2.45307,
            2.45563,
            2.45819,
            2.46075,
            2.4633,
            2.46586,
            2.46842,
            2.47098,
            2.47353,
            2.47609,
            2.47865,
            2.48121,
            2.48376,
            2.48632,
            2.48889,
            2.49146,
            2.49402,
            2.49657,
            2.49913,
            2.50169,
            2.50426,
            2.50682,
            2.50937,
            2.51193,
            2.51449,
            2.51705,
            2.51961,
            2.52218,
            2.52474,
            2.52731,
            2.52987,
            2.53243,
            2.535,
            2.53756,
            2.54012,
            2.54269,
            2.54526,
            2.54783,
            2.55041,
            2.55298,
            2.55555,
            2.55811,
            2.56068,
            2.56325,
            2.56582,
            2.56838,
            2.57095,
            2.57352,
            2.57609,
            2.57866,
            2.58123,
            2.58381,
            2.58638,
            2.58896,
            2.59153,
            2.5941,
            2.59668,
            2.59925,
            2.60182,
            2.60439,
            2.60697,
            2.60955,
            2.61213,
            2.61471,
            2.61728,
            2.61986,
            2.62243,
            2.62501,
            2.62758,
            2.63015,
            2.63273,
            2.63532,
            2.6379,
            2.64049,
            2.64307,
            2.64566,
            2.64824,
            2.65083,
            2.65341,
            2.65599,
            2.65858,
            2.66117,
            2.66377,
            2.66636,
            2.66895,
            2.67154,
            2.67413,
            2.67672,
            2.67931,
            2.68189,
            2.68448,
            2.68706,
            2.68964,
            2.69223,
            2.69483,
            2.69743,
            2.70002,
            2.70261,
            2.7052,
            2.70779,
            2.71038,
            2.71297,
            2.71556,
            2.71815,
            2.72076,
            2.72336,
            2.72595,
            2.72855,
            2.73115,
            2.73373,
            2.73632,
            2.73891,
            2.7415,
            2.74409,
            2.74667,
            2.74926,
            2.75185,
            2.75445,
            2.75705,
            2.75965,
            2.76224,
            2.76483,
            2.76742,
            2.77001,
            2.7726,
            2.7752,
            2.77779,
            2.78038,
            2.78297,
            2.78557,
            2.78817,
            2.79077,
            2.79336,
            2.79595,
            2.79854,
            2.80113,
            2.80371,
            2.80631,
            2.8089,
            2.81149,
            2.81409,
            2.81668,
            2.81927,
            2.82187,
            2.82446,
            2.82705,
            2.82964,
            2.83223,
            2.83481,
            2.83741,
            2.84,
            2.84259,
            2.84519,
            2.84779,
            2.85038,
            2.85297,
            2.85555,
            2.85813,
            2.86072,
            2.8633,
            2.86589,
            2.86848,
            2.87107,
            2.87366,
            2.87625,
            2.87884,
            2.88143,
            2.88402,
            2.8866,
            2.88919,
            2.89177,
            2.89436,
            2.89695,
            2.89954,
            2.90213,
            2.90471,
            2.9073,
            2.90988,
            2.91246,
            2.91504,
            2.91763,
            2.92021,
            2.92279,
            2.92537,
            2.92795,
            2.93054,
            2.93312,
            2.93571,
            2.93829,
            2.94088,
            2.94345,
            2.94603,
            2.94861,
            2.95119,
            2.95377,
            2.95635,
            2.95892,
            2.9615,
            2.96408,
            2.96666,
            2.96924,
            2.97182,
            2.97439,
            2.97697,
            2.97954,
            2.98212,
            2.98469,
            2.98727,
            2.98985,
            2.99242,
            2.995,
            2.99758,
            3.00015,
            3.00272,
            3.00529,
            3.00787,
            3.01044,
            3.01301,
            3.0156,
            3.01818,
            3.02076,
            3.02333,
            3.02591,
            3.02849,
            3.03106,
            3.03364,
            3.03622,
            3.0388,
            3.04137,
            3.04395,
            3.04652,
            3.0491,
            3.05168,
            3.05426,
            3.05684,
            3.05941,
            3.06198,
            3.06456,
            3.06713,
            3.06971,
            3.07229,
            3.07487,
            3.07746,
            3.08003,
            3.08261,
            3.08519,
            3.08777,
            3.09035,
            3.09293,
            3.09551,
            3.09808,
            3.10066,
            3.10324,
            3.10582,
            3.1084,
            3.11099,
            3.11357,
            3.11615,
            3.11872,
            3.12129,
            3.12387,
            3.12646,
            3.12904,
            3.13162,
            3.13421,
            3.13679,
            3.13937,
            3.14196,
            3.14454,
            3.14713,
            3.14971,
            3.15229,
            3.15488,
            3.15746,
            3.16004,
            3.16262,
            3.1652,
            3.16778,
            3.17037,
            3.17295,
            3.17554,
            3.17813,
            3.18072,
            3.1833,
            3.18589,
            3.18847,
            3.19106,
            3.19365,
            3.19624,
            3.19883,
            3.20141,
            3.204,
            3.20659,
            3.20918,
            3.21176,
            3.21434,
            3.21693,
            3.21951,
            3.2221,
            3.22469,
            3.22728,
            3.22988,
            3.23247,
            3.23507,
            3.23767,
            3.24026,
            3.24286,
            3.24545,
            3.24804,
            3.25063,
            3.25322,
            3.25581,
            3.25841,
            3.261,
            3.26359,
            3.26619,
            3.26878,
            3.27138,
            3.27398,
            3.27659,
            3.27919,
            3.28179,
            3.28438,
            3.28698,
            3.28957,
            3.29217,
            3.29477,
            3.29737,
            3.29997,
            3.30257,
            3.30517,
            3.30777,
            3.31036,
            3.31296,
            3.31555,
            3.31814,
            3.32074,
            3.32334,
            3.32594,
            3.32854,
            3.33114,
            3.33375,
            3.33635,
            3.33895,
            3.34156,
            3.34416,
            3.34675,
            3.34935,
            3.35195,
            3.35455,
            3.35715,
            3.35975,
            3.36235,
            3.36494,
            3.36754,
            3.37015,
            3.37275,
            3.37535,
            3.37795,
            3.38055,
            3.38315,
            3.38575,
            3.38836,
            3.39096,
            3.39357,
            3.39618,
            3.39878,
            3.40137,
            3.40397,
            3.40656,
            3.40916,
            3.41176,
            3.41436,
            3.41696,
            3.41956,
            3.42216,
            3.42476,
            3.42736,
            3.42996,
            3.43256,
            3.43516,
            3.43777,
            3.44037,
            3.44297,
            3.44558,
            3.44818,
            3.45078,
            3.45338,
            3.45598,
            3.45858,
            3.46117,
            3.46377,
            3.46637,
            3.46897,
            3.47157,
            3.47417,
            3.47678,
            3.47938,
            3.48199,
            3.48459,
            3.4872,
            3.4898,
            3.4924,
            3.495,
            3.4976,
            3.50021,
            3.50281,
            3.50541,
            3.50801,
            3.51061,
            3.51321,
            3.51581,
            3.51841,
            3.52101,
            3.52361,
            3.52621,
            3.52882,
            3.53143,
            3.53403,
            3.53664,
            3.53924,
            3.54184,
            3.54445,
            3.54705,
            3.54965,
            3.55226,
            3.55485,
            3.55745,
            3.56006,
            3.56266,
            3.56526,
            3.56787,
            3.57047,
            3.57307,
            3.57567,
            3.57828,
            3.58088,
            3.58349,
            3.58609,
            3.5887,
            3.5913,
            3.5939,
            3.59651,
            3.59911,
            3.60172,
            3.60432,
            3.60693,
            3.60953,
            3.61214,
            3.61474,
            3.61734,
            3.61995,
            3.62255,
            3.62515,
            3.62775,
            3.63036,
            3.63297,
            3.63557,
            3.63818,
            3.64078,
            3.64339,
            3.64599,
            3.6486,
            3.6512,
            3.6538,
            3.65641,
            3.65901,
            3.66162,
            3.66423,
            3.66684,
            3.66944,
            3.67205,
            3.67466,
            3.67727,
            3.67987,
            3.68248,
            3.68509,
            3.68769,
            3.6903,
            3.69291,
            3.69553,
            3.69813,
            3.70074,
            3.70335,
            3.70596,
            3.70857,
            3.71118,
            3.71378,
            3.71639,
            3.71899,
            3.7216,
            3.72421,
            3.72682,
            3.72943,
            3.73204,
            3.73465,
            3.73726,
            3.73987,
            3.74248,
            3.74509,
            3.7477,
            3.75031,
            3.75292,
            3.75553,
            3.75815,
            3.76075,
            3.76336,
            3.76596,
            3.76857,
            3.77117,
            3.77379,
            3.7764,
            3.77901,
            3.78162,
            3.78423,
            3.78685,
            3.78946,
            3.79207,
            3.79468,
            3.79729,
            3.79989,
            3.8025,
            3.80511,
            3.80773,
            3.81034,
            3.81295,
            3.81556,
            3.81817,
            3.82078,
            3.82339,
            3.826,
            3.8286,
            3.83121,
            3.83382,
            3.83643,
            3.83905,
            3.84166,
            3.84427,
            3.84688,
            3.84949,
            3.8521,
            3.85471,
            3.85733,
            3.85994,
            3.86255,
            3.86516,
            3.86777,
            3.87039,
            3.873,
            3.8756,
            3.87821,
            3.88082,
            3.88343,
            3.88604,
            3.88865,
            3.89127,
            3.89388,
            3.8965,
            3.89911,
            3.90173,
            3.90434,
            3.90695,
            3.90956,
            3.91217,
            3.91478,
            3.91739,
            3.92,
            3.92261,
            3.92523,
            3.92784,
            3.93045,
            3.93306,
            3.93568,
            3.9383,
            3.94091,
            3.94353,
            3.94614,
            3.94875,
            3.95137,
            3.95398,
            3.95659,
            3.95921,
            3.96182,
            3.96443,
            3.96704,
            3.96965,
            3.97227,
            3.97488,
            3.97749,
            3.9801,
            3.98271,
            3.98533,
            3.98794,
            3.99056,
            3.99318,
            3.99579,
            3.99841,
            4.00103,
            4.00364,
            4.00626,
            4.00886,
            4.01147,
            4.01409,
            4.01671,
            4.01932,
            4.02194,
            4.02455,
            4.02716,
            4.02977,
            4.03239,
            4.03501,
            4.03762,
            4.04023,
            4.04284,
            4.04546,
            4.04808,
            4.0507,
            4.05331,
            4.05592,
            4.05854,
            4.06115,
            4.06377,
            4.06638,
            4.069,
            4.0716,
            4.07422,
            4.07683,
            4.07945,
            4.08206,
            4.08468,
            4.08729,
            4.08991,
            4.09252,
            4.09514,
            4.09776,
            4.10037,
            4.10299,
            4.10561,
            4.10823,
            4.11085,
            4.11346,
            4.11607,
            4.11868,
            4.1213,
            4.12391,
            4.12653,
            4.12914,
            4.13176,
            4.13437,
            4.13699,
            4.13961,
            4.14223,
            4.14485,
            4.14746,
            4.15008,
            4.1527,
            4.15531,
            4.15793,
            4.16054,
            4.16316,
            4.16577,
            4.16839,
            4.171,
            4.17362,
            4.17623,
            4.17885,
            4.18147,
            4.18408,
            4.18671,
            4.18933,
            4.19195,
            4.19457,
            4.19719,
            4.1998,
            4.20242,
            4.20503,
            4.20764,
            4.21026,
            4.21287,
            4.21549,
            4.21811,
            4.22073,
            4.22335,
            4.22597,
            4.22859,
            4.2312,
            4.23382,
            4.23644,
            4.23906,
            4.24168,
            4.2443,
            4.24692,
            4.24954,
            4.25216,
            4.25478,
            4.25739,
            4.26001,
            4.26262,
            4.26524,
            4.26786,
            4.27047,
            4.27309,
            4.27571,
            4.27833,
            4.28095,
            4.28357,
            4.28619,
            4.28881,
            4.29143,
            4.29406,
            4.29668,
            4.2993,
            4.30191,
            4.30452,
            4.30714,
            4.30976,
            4.31238,
            4.315,
            4.31762,
            4.32024,
            4.32285,
            4.32547,
            4.32809,
            4.33071,
            4.33332,
            4.33595,
            4.33857,
            4.3412,
            4.34381,
            4.34643,
            4.34905,
            4.35167,
            4.35429,
            4.3569,
            4.35952,
            4.36214,
            4.36476,
            4.36738,
            4.37001,
            4.37263,
            4.37524,
            4.37787,
            4.38049,
            4.38311,
            4.38572,
            4.38834,
            4.39096,
            4.39358,
            4.3962,
            4.39882,
            4.40144,
            4.40406,
            4.40668,
            4.4093,
            4.41192,
            4.41454,
            4.41716,
            4.41978,
            4.4224,
            4.42503,
            4.42765,
            4.43027,
            4.43288,
            4.4355,
            4.43812,
            4.44074,
            4.44336,
            4.44598,
            4.4486,
            4.45123,
            4.45385,
            4.45647,
            4.45909,
            4.46171,
            4.46433,
            4.46695,
            4.46957,
            4.47219,
            4.47481,
            4.47743,
            4.48005,
            4.48267,
            4.4853,
            4.48792,
            4.49054,
            4.49316,
            4.49578
          ],
          [
            213.30293,
            215.73465,
            214.97293,
            217.64056,
            216.47606,
            217.52248,
            212.28735,
            212.0746,
            211.71208,
            212.5145,
            209.44446,
            215.11713,
            205.77373,
            207.27008,
            208.53734,
            208.12616,
            210.18523,
            207.89456,
            208.94785,
            206.75449,
            204.84506,
            205.10603,
            203.49026,
            206.82193,
            200.63416,
            202.6691,
            200.76132,
            200.67278,
            199.2999,
            203.68376,
            199.65305,
            200.01463,
            199.16331,
            196.00018,
            198.34888,
            199.21039,
            195.72231,
            198.55647,
            195.84015,
            197.40648,
            195.90674,
            196.43356,
            192.10339,
            192.24481,
            191.07811,
            189.8663,
            191.20462,
            190.44083,
            192.97791,
            194.59856,
            191.25217,
            188.41176,
            192.34543,
            187.15268,
            188.90407,
            186.3744,
            186.93689,
            184.79938,
            187.27977,
            184.39189,
            185.86592,
            183.80717,
            181.81126,
            183.03371,
            181.36041,
            181.78841,
            185.01703,
            178.45346,
            181.54726,
            179.44833,
            181.362,
            181.7697,
            179.63681,
            177.59953,
            174.79716,
            176.37767,
            178.33191,
            177.4192,
            176.6541,
            177.14255,
            177.31427,
            175.54753,
            175.2852,
            172.12491,
            177.71355,
            171.98846,
            175.66681,
            174.46353,
            170.84839,
            170.70032,
            174.87134,
            172.95306,
            169.93532,
            169.57768,
            167.04384,
            166.63383,
            170.40143,
            169.07082,
            167.73953,
            169.36031,
            167.00104,
            168.48871,
            165.8199,
            171.41264,
            167.95302,
            166.9256,
            166.85683,
            167.91496,
            161.8508,
            165.09665,
            160.47354,
            160.77368,
            162.47348,
            162.37413,
            159.63754,
            162.24753,
            163.34982,
            162.78833,
            159.19333,
            161.42212,
            161.82686,
            158.49039,
            153.61177,
            158.93752,
            160.45677,
            159.66785,
            158.56667,
            160.18417,
            156.61313,
            157.28758,
            153.73135,
            154.49684,
            155.57286,
            153.94919,
            154.05809,
            155.18982,
            154.38614,
            153.82611,
            148.66463,
            151.75113,
            152.1517,
            152.3716,
            153.86765,
            151.86737,
            153.00395,
            148.35393,
            153.20624,
            151.51103,
            150.65303,
            152.78708,
            147.2298,
            149.44022,
            150.83624,
            151.76077,
            149.17941,
            149.76303,
            146.97572,
            147.20476,
            149.72681,
            146.54961,
            148.81723,
            145.3743,
            146.25009,
            142.67726,
            145.0802,
            144.31883,
            143.93001,
            143.6088,
            139.57224,
            143.9393,
            138.31012,
            141.86781,
            142.53197,
            142.09325,
            141.39452,
            140.23096,
            136.39793,
            140.96339,
            138.62329,
            138.69687,
            138.27536,
            140.8829,
            137.74376,
            136.237,
            138.53088,
            138.40562,
            138.41827,
            136.48355,
            138.3241,
            136.11137,
            135.02661,
            133.6019,
            135.9399,
            135.85025,
            130.99884,
            132.54208,
            132.91077,
            133.29572,
            134.98399,
            132.96181,
            133.04456,
            130.64001,
            132.92339,
            132.06886,
            130.94717,
            129.98895,
            128.03925,
            127.81187,
            128.37746,
            127.57367,
            129.54219,
            126.0088,
            126.02257,
            126.06913,
            127.74503,
            125.10252,
            124.38221,
            123.65664,
            124.99995,
            123.8987,
            123.58585,
            120.83921,
            124.32338,
            120.99319,
            120.62171,
            122.4601,
            124.69699,
            122.1575,
            122.43786,
            122.68233,
            123.1918,
            124.00556,
            123.89594,
            128.4384,
            126.7969,
            127.10744,
            125.95655,
            125.27684,
            128.86771,
            124.47317,
            126.79107,
            125.37718,
            120.30437,
            121.03362,
            121.12872,
            120.49439,
            117.30639,
            117.05785,
            118.60651,
            112.81152,
            116.53162,
            112.41386,
            115.93661,
            117.08323,
            117.46347,
            115.38303,
            120.01795,
            121.45255,
            118.96436,
            124.42719,
            129.51645,
            124.59968,
            129.47495,
            127.46692,
            127.42058,
            124.60432,
            123.81821,
            124.27035,
            123.57323,
            122.82185,
            120.76791,
            118.71693,
            120.87412,
            123.87298,
            115.11839,
            121.5944,
            120.823,
            120.29472,
            119.10043,
            119.4296,
            120.95577,
            122.29604,
            118.12189,
            123.44333,
            121.99472,
            121.96093,
            122.43577,
            123.28235,
            122.8587,
            117.42707,
            121.69683,
            118.32334,
            114.8171,
            117.90393,
            112.34017,
            113.49742,
            113.00221,
            111.91135,
            110.79247,
            110.85168,
            109.79937,
            112.56217,
            109.3226,
            108.48105,
            112.50824,
            111.21211,
            110.90155,
            110.04102,
            109.95943,
            111.38755,
            110.42326,
            105.76639,
            107.19505,
            105.85699,
            103.82421,
            108.81101,
            109.10398,
            106.78185,
            112.52636,
            106.61163,
            107.56744,
            105.0654,
            104.66994,
            104.30036,
            105.88382,
            104.33324,
            106.53371,
            105.46098,
            104.4456,
            103.74741,
            101.14192,
            99.77015,
            101.37841,
            100.33467,
            103.55529,
            99.49423,
            101.94601,
            101.70419,
            98.88133,
            98.82121,
            97.76849,
            95.29623,
            96.87417,
            96.92097,
            96.68204,
            97.91007,
            95.08942,
            94.79326,
            91.81128,
            91.74353,
            94.57467,
            91.62009,
            92.09898,
            90.7641,
            89.92981,
            92.59187,
            89.89033,
            88.14863,
            88.4435,
            85.85692,
            86.2677,
            88.71707,
            92.27879,
            89.44428,
            92.00922,
            98.65545,
            101.8471,
            104.8962,
            109.9683,
            109.39671,
            112.2511,
            109.90227,
            107.68176,
            109.96294,
            108.91992,
            107.16219,
            105.74327,
            104.13618,
            104.40368,
            100.90322,
            104.92587,
            101.09007,
            96.78242,
            97.79086,
            101.2608,
            99.47256,
            96.63484,
            95.46581,
            95.37785,
            94.21961,
            91.36289,
            92.96658,
            93.81591,
            93.6657,
            89.75294,
            89.36491,
            88.1245,
            86.86098,
            82.6658,
            83.36575,
            84.23866,
            82.30714,
            81.18323,
            77.70968,
            78.24506,
            76.61216,
            74.3915,
            73.17032,
            71.28398,
            71.02447,
            69.37711,
            69.32931,
            68.91025,
            71.71401,
            74.52223,
            80.27491,
            84.25452,
            93.21259,
            104.17928,
            107.52917,
            114.43667,
            126.25829,
            134.10477,
            131.84302,
            134.22099,
            135.89265,
            131.41908,
            133.7099,
            127.55634,
            126.16886,
            121.29967,
            121.56443,
            118.51576,
            113.83403,
            113.31159,
            112.82233,
            112.55125,
            107.06272,
            104.76104,
            111.31026,
            104.57608,
            103.44199,
            104.8224,
            103.83318,
            101.26583,
            99.94042,
            101.61559,
            99.94871,
            99.55769,
            101.07812,
            99.3503,
            101.00682,
            99.82181,
            100.20866,
            96.82487,
            98.53055,
            105.44464,
            102.29738,
            103.5651,
            102.6871,
            105.99545,
            107.47118,
            104.22365,
            102.06417,
            101.88764,
            100.7402,
            100.88983,
            98.92174,
            97.3727,
            98.05893,
            96.41215,
            95.8073,
            96.87493,
            94.66471,
            98.64722,
            100.52885,
            97.84647,
            98.70705,
            100.75327,
            98.41874,
            101.7686,
            97.7941,
            99.42344,
            95.99608,
            94.5773,
            90.89915,
            90.58987,
            87.62983,
            88.44265,
            89.74945,
            91.32202,
            86.618,
            89.97255,
            88.01118,
            87.04501,
            86.03393,
            88.34106,
            84.7246,
            85.2007,
            88.33498,
            85.25816,
            85.24963,
            81.47758,
            82.8511,
            84.87215,
            82.61,
            80.64687,
            80.35407,
            79.36906,
            83.37315,
            82.53411,
            84.71512,
            83.10614,
            85.68623,
            82.7887,
            83.20877,
            81.36299,
            82.46629,
            83.97633,
            82.80444,
            83.37359,
            82.62824,
            84.84076,
            82.01427,
            81.3576,
            82.3328,
            81.61585,
            84.4426,
            83.80005,
            81.20615,
            87.41085,
            82.36481,
            83.18124,
            85.34774,
            88.64565,
            89.89391,
            89.4155,
            91.00833,
            90.37843,
            90.52276,
            90.16473,
            86.23498,
            86.39447,
            88.93739,
            85.73652,
            81.01743,
            81.91371,
            83.20328,
            80.71034,
            79.17166,
            82.85831,
            77.63103,
            80.63454,
            79.58849,
            78.44204,
            78.45615,
            77.96769,
            78.30564,
            76.03371,
            82.76564,
            79.65249,
            81.02658,
            85.55418,
            82.50122,
            86.43777,
            88.51029,
            94.88908,
            95.94298,
            96.96222,
            102.61485,
            107.33858,
            111.29096,
            116.9934,
            120.6534,
            129.19588,
            124.65289,
            122.49094,
            114.31845,
            114.33936,
            100.95994,
            91.22649,
            86.83263,
            77.86948,
            73.65712,
            69.54709,
            69.47764,
            64.95226,
            65.44019,
            63.91172,
            63.19167,
            61.46265,
            62.24786,
            61.09106,
            62.17549,
            60.40786,
            61.48924,
            59.62777,
            60.7234,
            61.61675,
            60.12042,
            59.14741,
            60.71452,
            62.88247,
            60.25642,
            62.31422,
            62.36992,
            61.5785,
            60.7648,
            60.79256,
            60.82497,
            59.90603,
            61.49134,
            57.83497,
            59.26708,
            59.239,
            59.24887,
            59.39234,
            56.90562,
            58.34217,
            58.15773,
            58.62573,
            55.46797,
            55.24307,
            54.39491,
            57.42371,
            54.05064,
            55.95281,
            55.09456,
            54.23529,
            53.30718,
            53.26926,
            52.54427,
            52.58309,
            51.15136,
            48.39439,
            49.16989,
            49.86387,
            48.59817,
            45.3194,
            46.69642,
            48.10849,
            43.5469,
            43.16064,
            43.28296,
            42.6307,
            45.98925,
            45.54851,
            53.30786,
            54.45387,
            60.36529,
            68.2279,
            74.56034,
            80.81935,
            90.53988,
            94.53773,
            100.92856,
            103.99245,
            103.04005,
            108.46326,
            107.26836,
            110.49209,
            106.90234,
            111.3612,
            117.74593,
            127.03284,
            129.37766,
            143.20738,
            161.13292,
            178.44765,
            193.25058,
            207.13893,
            213.74646,
            217.88374,
            212.84146,
            207.86456,
            190.09218,
            165.2146,
            147.66037,
            134.20898,
            123.91575,
            113.18156,
            105.8758,
            92.34017,
            85.5872,
            84.65709,
            83.27522,
            81.65894,
            79.26229,
            78.04527,
            76.16225,
            78.19985,
            78.42091,
            81.70858,
            86.21798,
            83.52045,
            87.57085,
            87.81563,
            89.30611,
            91.54068,
            88.91607,
            86.53101,
            83.3181,
            73.77321,
            69.75597,
            64.75693,
            62.69513,
            56.8051,
            54.68885,
            50.32057,
            50.80471,
            49.16521,
            44.997,
            43.99123,
            46.20332,
            45.45431,
            46.58744,
            43.30409,
            44.29053,
            43.17495,
            45.65655,
            43.44313,
            40.88428,
            43.86666,
            45.51921,
            44.10809,
            46.69904,
            45.06147,
            43.63166,
            43.38283,
            42.58209,
            42.92372,
            41.51944,
            39.56022,
            40.09789,
            41.10095,
            40.07195,
            38.80991,
            34.81047,
            35.17025,
            35.69381,
            33.21633,
            31.66406,
            31.99261,
            30.299,
            31.05222,
            32.86806,
            32.26255,
            33.206,
            34.32319,
            35.74519,
            37.30447,
            39.00128,
            40.96224,
            45.95694,
            47.61784,
            58.24305,
            62.37192,
            71.07031,
            75.66298,
            86.74089,
            91.88618,
            99.46275,
            106.55262,
            104.6361,
            104.94621,
            99.09223,
            96.30572,
            97.03124,
            91.39851,
            94.99425,
            100.49921,
            105.91473,
            107.3054,
            120.2802,
            127.49453,
            137.00449,
            141.03999,
            149.14793,
            155.63774,
            155.38391,
            154.89049,
            152.70744,
            143.42773,
            143.53253,
            131.11977,
            128.00542,
            119.03527,
            110.3681,
            104.05238,
            98.86346,
            94.8056,
            85.22137,
            81.03695,
            78.50733,
            76.6039,
            70.1281,
            68.199,
            68.06624,
            58.88459,
            56.69556,
            54.75245,
            54.38948,
            50.25728,
            49.65786,
            45.79697,
            43.88844,
            42.48917,
            42.00274,
            37.14595,
            37.34426,
            37.224,
            34.4505,
            34.39311,
            31.25376,
            32.36161,
            31.86535,
            28.47133,
            27.64239,
            25.58861,
            25.75812,
            22.25032,
            25.53667,
            22.15068,
            22.4978,
            21.83585,
            18.81342,
            19.51345,
            19.61266,
            19.21013,
            17.05005,
            18.18399,
            15.01384,
            14.76507,
            13.78216,
            15.25948,
            14.70276,
            13.46776,
            12.69559,
            14.3492,
            13.7139,
            15.9661,
            18.7213,
            21.29606,
            26.54005,
            30.25306,
            39.87465,
            45.6419,
            59.0087,
            70.4952,
            89.18753,
            98.67644,
            105.1802,
            116.7369,
            118.37738,
            111.52458,
            103.2952,
            93.27896,
            81.29069,
            68.44273,
            60.33498,
            50.67826,
            42.23082,
            37.91626,
            34.35686,
            34.18675,
            33.25949,
            34.67828,
            35.9246,
            34.77611,
            37.08021,
            39.76461,
            43.43083,
            40.55013,
            43.428,
            49.65852,
            52.7309,
            57.59423,
            59.56686,
            61.16781,
            65.7395,
            71.78279,
            73.87313,
            74.90779,
            79.58234,
            85.52534,
            84.58141,
            87.45579,
            87.03442,
            92.94067,
            91.64063,
            99.14521,
            107.32259,
            122.86208,
            139.41171,
            161.36627,
            186.6366,
            214.42107,
            240.18073,
            255.48524,
            280.50818,
            298.05243,
            302.74554,
            303.22433,
            316.03217,
            315.1058,
            315.26248,
            310.1106,
            311.78082,
            313.41141,
            310.30197,
            308.05161,
            305.83554,
            307.72003,
            295.03842,
            283.65869,
            284.41678,
            267.51468,
            248.22192,
            241.89409,
            230.37131,
            223.52966,
            214.91919,
            215.31851,
            210.09645,
            207.43843,
            204.42239,
            204.88905,
            207.49303,
            217.26331,
            217.5584,
            227.0029,
            232.8356,
            250.61961,
            272.19296,
            293.8837,
            320.61746,
            348.53989,
            362.77881,
            387.68921,
            374.27762,
            381.79126,
            359.99933,
            332.21301,
            307.48239,
            285.7829,
            249.85381,
            235.37669,
            222.16772,
            201.70871,
            187.81729,
            183.64182,
            174.66862,
            162.52612,
            165.67702,
            149.69887,
            147.88741,
            134.42375,
            135.01466,
            126.98145,
            126.44752,
            118.70111,
            119.95306,
            113.36924,
            116.48754,
            111.30686,
            111.69084,
            112.77824,
            114.87071,
            109.3538,
            110.33303,
            109.63506,
            112.09325,
            111.60297,
            113.70506,
            105.51353,
            105.09529,
            105.05979,
            102.90359,
            98.92039,
            100.3995,
            101.53792,
            101.21149,
            101.93844,
            104.59812,
            112.03425,
            114.75186,
            124.29453,
            142.4733,
            150.88503,
            163.19406,
            186.30766,
            197.2572,
            221.91232,
            236.42581,
            258.11615,
            279.3056,
            300.32956,
            305.23886,
            322.85413,
            335.10617,
            347.34323,
            355.45471,
            354.77417,
            357.36526,
            373.96875,
            368.79742,
            378.25464,
            383.2572,
            383.42273,
            377.9075,
            383.39001,
            401.3103,
            404.51373,
            421.58066,
            427.39175,
            431.87204,
            456.629,
            478.702,
            482.55814,
            496.65042,
            497.85477,
            492.5451,
            471.46085,
            449.0632,
            405.5181,
            360.37421,
            336.53198,
            299.78329,
            265.79556,
            251.86794,
            237.23238,
            237.80605,
            234.88913,
            240.02882,
            247.62274,
            249.4718,
            255.67494,
            268.81317,
            273.93826,
            282.1445,
            292.10654,
            300.56882,
            301.86008,
            308.75958,
            313.56622,
            319.10025,
            319.63522,
            319.40585,
            321.83234,
            334.61502,
            337.6091,
            340.25946,
            342.30045,
            345.68954,
            350.53677,
            353.82141,
            357.77032,
            363.4577,
            360.96671,
            360.66211,
            368.9491,
            366.46527,
            374.96741,
            374.01132,
            374.39346,
            379.37189,
            391.10562,
            386.07086,
            390.94659,
            387.37943,
            396.02606,
            400.33212,
            396.88309,
            407.65619,
            407.09344,
            406.58844,
            404.95096,
            404.43323,
            412.82535,
            405.17093,
            396.18649,
            389.63089,
            397.79248,
            393.79358,
            404.38605,
            394.51431,
            404.40015,
            415.92969,
            435.84918,
            439.24957,
            453.84409,
            477.53937,
            490.13077,
            510.14822,
            537.41754,
            541.77014,
            573.32214,
            584.18549,
            592.42743,
            593.92694,
            611.11267,
            625.77905,
            648.63251,
            660.09943,
            672.25555,
            667.50818,
            693.52496,
            685.11993,
            705.3313,
            700.19263,
            694.2207,
            703.98663,
            698.81305,
            696.25916,
            692.39319,
            691.47375,
            679.87982,
            663.33978,
            646.13806,
            639.55762,
            613.59412,
            585.07153,
            578.97656,
            534.2879,
            520.84344,
            504.91278,
            472.73734,
            463.24698,
            434.02194,
            415.45096,
            393.48691,
            377.19513,
            362.99725,
            339.54889,
            328.88165,
            322.57083,
            292.17377,
            282.6684,
            264.00366,
            242.82001,
            226.29535,
            201.82079,
            185.6414,
            171.76538,
            150.10762,
            135.34413,
            123.07465,
            112.16754,
            104.13184,
            96.54833,
            97.26311,
            92.55138,
            90.55362,
            92.47466,
            90.7421,
            94.99468,
            91.97942,
            84.46704,
            78.21595,
            75.82902,
            64.0479,
            58.36939,
            45.93256,
            35.75283,
            32.12236,
            27.57979,
            22.85279,
            16.16301
          ],
          [
            1.98295,
            1.99472,
            1.99468,
            2.01054,
            2.00751,
            2.01315,
            1.98956,
            1.98678,
            1.98226,
            1.98343,
            1.97633,
            2.01035,
            1.96987,
            1.97499,
            1.97899,
            1.97759,
            1.98926,
            1.98031,
            1.98782,
            1.97989,
            1.97258,
            1.97318,
            1.96474,
            1.98118,
            1.95251,
            1.96359,
            1.95597,
            1.95725,
            1.95233,
            1.97593,
            1.95851,
            1.96178,
            1.95814,
            1.94307,
            1.95839,
            1.96747,
            1.9542,
            1.96677,
            1.95178,
            1.9601,
            1.95614,
            1.96228,
            1.94064,
            1.93989,
            1.93255,
            1.9279,
            1.93631,
            1.93423,
            1.94927,
            1.95965,
            1.94559,
            1.93429,
            1.95762,
            1.93187,
            1.94159,
            1.9293,
            1.93315,
            1.92301,
            1.93597,
            1.92023,
            1.92713,
            1.91977,
            1.91317,
            1.92273,
            1.91351,
            1.91537,
            1.93262,
            1.89919,
            1.91677,
            1.90913,
            1.92362,
            1.92958,
            1.91559,
            1.9021,
            1.88631,
            1.89664,
            1.90896,
            1.9074,
            1.90724,
            1.91385,
            1.91336,
            1.9024,
            1.90112,
            1.88807,
            1.92272,
            1.89365,
            1.91497,
            1.90959,
            1.88993,
            1.88934,
            1.91291,
            1.90415,
            1.88922,
            1.88805,
            1.87394,
            1.8717,
            1.89428,
            1.88862,
            1.88281,
            1.89327,
            1.88141,
            1.89075,
            1.87634,
            1.90836,
            1.89058,
            1.88656,
            1.88783,
            1.89459,
            1.86085,
            1.87974,
            1.85311,
            1.85472,
            1.86726,
            1.87008,
            1.85751,
            1.8751,
            1.88394,
            1.8816,
            1.8594,
            1.87107,
            1.87437,
            1.85677,
            1.82988,
            1.86406,
            1.87569,
            1.87211,
            1.86433,
            1.87251,
            1.85396,
            1.86195,
            1.8447,
            1.84923,
            1.85561,
            1.84652,
            1.84889,
            1.8574,
            1.8547,
            1.8536,
            1.82441,
            1.84337,
            1.84593,
            1.84751,
            1.85706,
            1.84547,
            1.85449,
            1.82916,
            1.86187,
            1.85183,
            1.84687,
            1.86008,
            1.82588,
            1.83948,
            1.84953,
            1.85752,
            1.84397,
            1.84822,
            1.83148,
            1.83377,
            1.85102,
            1.83287,
            1.84841,
            1.82821,
            1.83502,
            1.812,
            1.82668,
            1.82201,
            1.82132,
            1.82105,
            1.79649,
            1.82538,
            1.79036,
            1.81598,
            1.82299,
            1.82186,
            1.81679,
            1.80872,
            1.78515,
            1.81726,
            1.80457,
            1.80675,
            1.80571,
            1.82335,
            1.802,
            1.7912,
            1.80812,
            1.8105,
            1.81377,
            1.79989,
            1.81083,
            1.79623,
            1.79146,
            1.78437,
            1.80199,
            1.80334,
            1.77268,
            1.78396,
            1.7873,
            1.79086,
            1.80332,
            1.7909,
            1.79267,
            1.77762,
            1.7943,
            1.78897,
            1.7818,
            1.77618,
            1.76426,
            1.76414,
            1.76942,
            1.76523,
            1.78007,
            1.75589,
            1.75625,
            1.75724,
            1.77014,
            1.75299,
            1.74909,
            1.74511,
            1.75569,
            1.74905,
            1.74794,
            1.72945,
            1.75522,
            1.73255,
            1.73149,
            1.7464,
            1.76383,
            1.746,
            1.74822,
            1.75153,
            1.75773,
            1.76611,
            1.76473,
            1.79586,
            1.7841,
            1.7883,
            1.78219,
            1.77953,
            1.80717,
            1.77837,
            1.79399,
            1.78293,
            1.74685,
            1.75522,
            1.759,
            1.75442,
            1.72959,
            1.7263,
            1.74102,
            1.70128,
            1.73139,
            1.70051,
            1.72694,
            1.73499,
            1.7372,
            1.72156,
            1.75927,
            1.77327,
            1.75652,
            1.79539,
            1.83072,
            1.79694,
            1.8338,
            1.82151,
            1.8229,
            1.80434,
            1.7992,
            1.80216,
            1.79678,
            1.79364,
            1.78121,
            1.76796,
            1.78374,
            1.80553,
            1.74142,
            1.79145,
            1.78747,
            1.78533,
            1.77821,
            1.78174,
            1.79297,
            1.80276,
            1.77291,
            1.81417,
            1.8052,
            1.80589,
            1.81034,
            1.8179,
            1.81659,
            1.77777,
            1.81073,
            1.78623,
            1.76039,
            1.78499,
            1.74344,
            1.75297,
            1.74929,
            1.74098,
            1.73474,
            1.73801,
            1.73154,
            1.75259,
            1.7266,
            1.7217,
            1.75623,
            1.74883,
            1.74654,
            1.7399,
            1.73926,
            1.75029,
            1.74246,
            1.70702,
            1.72091,
            1.71228,
            1.6968,
            1.73814,
            1.74127,
            1.72318,
            1.76949,
            1.72268,
            1.73069,
            1.71115,
            1.70994,
            1.70892,
            1.72357,
            1.71245,
            1.73185,
            1.72286,
            1.7143,
            1.70906,
            1.68899,
            1.679,
            1.69246,
            1.68327,
            1.71008,
            1.67936,
            1.70313,
            1.7017,
            1.67668,
            1.67494,
            1.66864,
            1.65017,
            1.66555,
            1.66561,
            1.66323,
            1.67545,
            1.65379,
            1.65365,
            1.62683,
            1.62563,
            1.65135,
            1.62753,
            1.63398,
            1.62312,
            1.61649,
            1.64092,
            1.61683,
            1.60112,
            1.60462,
            1.58236,
            1.58751,
            1.61011,
            1.64235,
            1.61746,
            1.64145,
            1.7007,
            1.7297,
            1.75732,
            1.80107,
            1.79701,
            1.82095,
            1.80289,
            1.78603,
            1.80632,
            1.79843,
            1.78455,
            1.77351,
            1.76098,
            1.76424,
            1.73482,
            1.76928,
            1.737,
            1.70108,
            1.71142,
            1.74225,
            1.72689,
            1.70217,
            1.69291,
            1.69322,
            1.6841,
            1.65977,
            1.67569,
            1.6839,
            1.68283,
            1.64774,
            1.6459,
            1.63615,
            1.62506,
            1.58534,
            1.59204,
            1.60201,
            1.58518,
            1.57585,
            1.54312,
            1.54979,
            1.53378,
            1.51129,
            1.4989,
            1.48027,
            1.47839,
            1.46195,
            1.46224,
            1.4586,
            1.48856,
            1.51802,
            1.57584,
            1.61432,
            1.69786,
            1.79726,
            1.82884,
            1.88849,
            1.98249,
            2.04199,
            2.02596,
            2.04637,
            2.06135,
            2.02953,
            2.04957,
            2.00262,
            1.99093,
            1.95138,
            1.95564,
            1.93329,
            1.89565,
            1.89037,
            1.88535,
            1.88478,
            1.84045,
            1.82228,
            1.87854,
            1.82099,
            1.81226,
            1.82611,
            1.81912,
            1.79689,
            1.7855,
            1.80168,
            1.7888,
            1.78724,
            1.80038,
            1.78438,
            1.7994,
            1.79026,
            1.79517,
            1.76513,
            1.7809,
            1.84283,
            1.81606,
            1.82822,
            1.8204,
            1.84907,
            1.86183,
            1.83528,
            1.81794,
            1.81768,
            1.80847,
            1.81087,
            1.79413,
            1.78104,
            1.78852,
            1.77479,
            1.77057,
            1.7812,
            1.76153,
            1.79895,
            1.81672,
            1.79301,
            1.80154,
            1.82078,
            1.80048,
            1.83226,
            1.79749,
            1.8125,
            1.78076,
            1.76788,
            1.73527,
            1.73443,
            1.70679,
            1.71515,
            1.72851,
            1.74525,
            1.70134,
            1.73506,
            1.71682,
            1.70808,
            1.69807,
            1.72064,
            1.68608,
            1.69288,
            1.72577,
            1.69569,
            1.69586,
            1.65867,
            1.67384,
            1.69541,
            1.67411,
            1.65554,
            1.65301,
            1.64181,
            1.68165,
            1.67532,
            1.70009,
            1.68589,
            1.7127,
            1.68431,
            1.68937,
            1.67129,
            1.68334,
            1.69935,
            1.68813,
            1.69446,
            1.68735,
            1.71055,
            1.68361,
            1.67864,
            1.68979,
            1.68325,
            1.713,
            1.70736,
            1.68161,
            1.74508,
            1.69402,
            1.70255,
            1.72675,
            1.76202,
            1.77599,
            1.77243,
            1.7893,
            1.78348,
            1.78528,
            1.78273,
            1.74506,
            1.74829,
            1.77414,
            1.74212,
            1.69412,
            1.70469,
            1.71928,
            1.69438,
            1.67919,
            1.7184,
            1.66306,
            1.69466,
            1.68576,
            1.6762,
            1.67842,
            1.67373,
            1.67789,
            1.65408,
            1.72653,
            1.69473,
            1.71085,
            1.75961,
            1.72856,
            1.76957,
            1.7911,
            1.85594,
            1.86764,
            1.87896,
            1.93441,
            1.97962,
            2.01549,
            2.06623,
            2.09999,
            2.17605,
            2.1403,
            2.12299,
            2.05223,
            2.05326,
            1.9298,
            1.83483,
            1.7916,
            1.69804,
            1.6524,
            1.60612,
            1.6058,
            1.55354,
            1.56031,
            1.54284,
            1.53488,
            1.51448,
            1.52506,
            1.51177,
            1.52604,
            1.50503,
            1.5193,
            1.49632,
            1.51008,
            1.52152,
            1.50395,
            1.49275,
            1.51314,
            1.54061,
            1.50877,
            1.535,
            1.53637,
            1.52804,
            1.5196,
            1.52124,
            1.52158,
            1.50997,
            1.53013,
            1.48441,
            1.50345,
            1.50516,
            1.50736,
            1.50954,
            1.4772,
            1.49546,
            1.49368,
            1.50027,
            1.46019,
            1.45832,
            1.44809,
            1.48814,
            1.44405,
            1.4699,
            1.45949,
            1.44898,
            1.43759,
            1.43813,
            1.42849,
            1.42849,
            1.40843,
            1.37155,
            1.38411,
            1.39537,
            1.37898,
            1.33292,
            1.35196,
            1.37117,
            1.30471,
            1.30016,
            1.30325,
            1.29422,
            1.34508,
            1.33908,
            1.44871,
            1.46426,
            1.54276,
            1.64131,
            1.71687,
            1.78849,
            1.89407,
            1.93661,
            2.00222,
            2.0336,
            2.02546,
            2.07931,
            2.06745,
            2.09787,
            2.06384,
            2.10754,
            2.16825,
            2.2534,
            2.27539,
            2.39512,
            2.54171,
            2.67595,
            2.78701,
            2.88781,
            2.93493,
            2.96365,
            2.92969,
            2.89737,
            2.77278,
            2.58654,
            2.44644,
            2.33345,
            2.24192,
            2.14238,
            2.07202,
            1.93513,
            1.86323,
            1.85489,
            1.84149,
            1.82458,
            1.79817,
            1.78485,
            1.7636,
            1.78745,
            1.79157,
            1.83118,
            1.88322,
            1.85372,
            1.89834,
            1.90052,
            1.91581,
            1.93935,
            1.91273,
            1.88826,
            1.85426,
            1.74614,
            1.69884,
            1.63693,
            1.61075,
            1.53415,
            1.5064,
            1.44602,
            1.45394,
            1.43125,
            1.36985,
            1.35502,
            1.3893,
            1.37867,
            1.39644,
            1.34669,
            1.3623,
            1.34528,
            1.38353,
            1.34971,
            1.31002,
            1.35764,
            1.38382,
            1.36315,
            1.40357,
            1.3795,
            1.35819,
            1.35505,
            1.34321,
            1.3493,
            1.32765,
            1.29653,
            1.30577,
            1.3224,
            1.30631,
            1.28654,
            1.21936,
            1.22596,
            1.23524,
            1.19163,
            1.16321,
            1.16898,
            1.13871,
            1.15405,
            1.18835,
            1.17806,
            1.19588,
            1.21655,
            1.24223,
            1.26986,
            1.29932,
            1.3325,
            1.41222,
            1.43835,
            1.59108,
            1.64651,
            1.75764,
            1.81388,
            1.9425,
            2.00036,
            2.08256,
            2.15665,
            2.13766,
            2.14131,
            2.08212,
            2.05418,
            2.06356,
            2.00453,
            2.04537,
            2.1038,
            2.15973,
            2.17456,
            2.30373,
            2.37325,
            2.46067,
            2.49716,
            2.56808,
            2.62327,
            2.6216,
            2.62,
            2.60402,
            2.52523,
            2.52747,
            2.41698,
            2.38939,
            2.3054,
            2.22073,
            2.15702,
            2.10348,
            2.06099,
            1.95511,
            1.90741,
            1.87829,
            1.85574,
            1.77554,
            1.751,
            1.7499,
            1.62816,
            1.59912,
            1.57337,
            1.56944,
            1.50847,
            1.49929,
            1.44104,
            1.41209,
            1.39029,
            1.38254,
            1.30037,
            1.30412,
            1.3023,
            1.25378,
            1.25419,
            1.19677,
            1.21795,
            1.20872,
            1.14252,
            1.12569,
            1.08325,
            1.08751,
            1.01138,
            1.08397,
            1.00998,
            1.01843,
            1.00401,
            0.93255,
            0.9499,
            0.95248,
            0.94299,
            0.8888,
            0.91843,
            0.83539,
            0.82929,
            0.80107,
            0.84256,
            0.82709,
            0.79222,
            0.76978,
            0.81895,
            0.80117,
            0.86461,
            0.93606,
            0.99837,
            1.11556,
            1.19214,
            1.3693,
            1.46547,
            1.66702,
            1.82322,
            2.05205,
            2.15844,
            2.22831,
            2.34792,
            2.36518,
            2.29667,
            2.21234,
            2.10427,
            1.96467,
            1.80237,
            1.69237,
            1.55218,
            1.41797,
            1.34391,
            1.27952,
            1.27673,
            1.25979,
            1.28703,
            1.31178,
            1.29244,
            1.33455,
            1.38108,
            1.44289,
            1.39497,
            1.44439,
            1.5458,
            1.59425,
            1.66677,
            1.69501,
            1.71776,
            1.78261,
            1.86465,
            1.89232,
            1.90574,
            1.96455,
            2.03689,
            2.02594,
            2.0625,
            2.06002,
            2.12941,
            2.11353,
            2.19781,
            2.28865,
            2.45088,
            2.61234,
            2.81201,
            3.02486,
            3.24137,
            3.42975,
            3.54158,
            3.71542,
            3.83096,
            3.85984,
            3.86281,
            3.94794,
            3.94654,
            3.95005,
            3.9198,
            3.93057,
            3.93893,
            3.91815,
            3.91005,
            3.90209,
            3.91595,
            3.83426,
            3.75979,
            3.76587,
            3.65329,
            3.52026,
            3.47627,
            3.39295,
            3.34223,
            3.27787,
            3.28434,
            3.24766,
            3.22903,
            3.20705,
            3.21239,
            3.23459,
            3.31169,
            3.31504,
            3.38735,
            3.43111,
            3.56,
            3.71061,
            3.85689,
            4.02982,
            4.20385,
            4.29121,
            4.43835,
            4.36299,
            4.40855,
            4.28237,
            4.11522,
            3.96101,
            3.82064,
            3.57408,
            3.47044,
            3.37315,
            3.21635,
            3.1058,
            3.07138,
            2.9951,
            2.88938,
            2.91831,
            2.77506,
            2.75955,
            2.63222,
            2.63924,
            2.56071,
            2.55671,
            2.47886,
            2.49362,
            2.42588,
            2.4607,
            2.40611,
            2.41047,
            2.42268,
            2.44627,
            2.388,
            2.39854,
            2.39073,
            2.41747,
            2.41251,
            2.43585,
            2.34881,
            2.34649,
            2.34686,
            2.32317,
            2.27901,
            2.29789,
            2.31246,
            2.30862,
            2.31678,
            2.34771,
            2.43094,
            2.46224,
            2.56564,
            2.74955,
            2.82782,
            2.93912,
            3.14245,
            3.23677,
            3.43483,
            3.54457,
            3.7029,
            3.85405,
            3.99871,
            4.03486,
            4.15386,
            4.23406,
            4.30959,
            4.35887,
            4.35971,
            4.38065,
            4.48325,
            4.45272,
            4.51039,
            4.54171,
            4.54431,
            4.51364,
            4.5484,
            4.65289,
            4.66968,
            4.76766,
            4.80519,
            4.83513,
            4.97336,
            5.09373,
            5.11712,
            5.19491,
            5.20437,
            5.17895,
            5.06918,
            4.94732,
            4.70136,
            4.43389,
            4.28747,
            4.04854,
            3.81267,
            3.71198,
            3.60354,
            3.60893,
            3.58871,
            3.63014,
            3.68888,
            3.7033,
            3.7498,
            3.84805,
            3.8877,
            3.9481,
            4.0196,
            4.07891,
            4.08778,
            4.13447,
            4.16794,
            4.20598,
            4.2101,
            4.20891,
            4.22623,
            4.31232,
            4.33438,
            4.35265,
            4.36699,
            4.39132,
            4.42514,
            4.44856,
            4.47563,
            4.513,
            4.497,
            4.4946,
            4.54835,
            4.53603,
            4.59125,
            4.58815,
            4.59249,
            4.62236,
            4.69274,
            4.66434,
            4.69591,
            4.67674,
            4.73105,
            4.75912,
            4.74095,
            4.80728,
            4.808,
            4.80909,
            4.80048,
            4.79704,
            4.84705,
            4.8041,
            4.75268,
            4.71424,
            4.76441,
            4.74106,
            4.80494,
            4.74836,
            4.81224,
            4.88417,
            4.99888,
            5.01746,
            5.10518,
            5.24262,
            5.31434,
            5.42281,
            5.56708,
            5.5912,
            5.75339,
            5.81114,
            5.85558,
            5.86353,
            5.94688,
            6.01961,
            6.13448,
            6.19382,
            6.24847,
            6.22428,
            6.34847,
            6.31588,
            6.41237,
            6.39079,
            6.36498,
            6.40995,
            6.38672,
            6.38072,
            6.36914,
            6.36607,
            6.31035,
            6.23383,
            6.15956,
            6.13486,
            6.00755,
            5.86481,
            5.83694,
            5.61104,
            5.54371,
            5.46179,
            5.28768,
            5.23351,
            5.06495,
            4.95886,
            4.82997,
            4.73011,
            4.63972,
            4.48839,
            4.42139,
            4.38274,
            4.17221,
            4.10484,
            3.9683,
            3.8071,
            3.67681,
            3.47399,
            3.33314,
            3.20623,
            2.99736,
            2.84825,
            2.71826,
            2.59594,
            2.50141,
            2.4092,
            2.41951,
            2.3615,
            2.33653,
            2.36185,
            2.34061,
            2.39592,
            2.35845,
            2.26071,
            2.17603,
            2.14305,
            1.97001,
            1.8819,
            1.67055,
            1.47442,
            1.39795,
            1.29581,
            1.18011,
            0.99289
          ]
        ]
      }
    },
    "003": {
      "common": {
        "heads": [
          "ANG-CM"
        ],
        "units": [
          "ADEG"
        ],
        "data": [
          [
            180.0
          ]
        ]
      },
      "data": {
        "heads": [
          "EN-CM",
          "DATA-CM",
          "ERR-S"
        ],
        "units": [
          "MEV",
          "MB/SR",
          "MB/SR"
        ],
        "data": [
          [
            1.84853,
            1.85145,
            1.85438,
            1.85732,
            1.86027,
            1.86321,
            1.86615,
            1.86909,
            1.87203,
            1.87497,
            1.87792,
            1.88086,
            1.88381,
            1.88675,
            1.8897,
            1.89265,
            1.8956,
            1.89855,
            1.9015,
            1.90446,
            1.90741,
            1.91036,
            1.91331,
            1.91625,
            1.91921,
            1.92217,
            1.92512,
            1.92808,
            1.93103,
            1.93399,
            1.93695,
            1.93991,
            1.94287,
            1.94582,
            1.94879,
            1.95175,
            1.95472,
            1.95768,
            1.96065,
            1.9636,
            1.96656,
            1.96953,
            1.9725,
            1.97547,
            1.97844,
            1.9814,
            1.98436,
            1.98733,
            1.9903,
            1.99328,
            1.99626,
            1.99923,
            2.0022,
            2.00517,
            2.00815,
            2.01112,
            2.01408,
            2.01704,
            2.02002,
            2.023,
            2.02598,
            2.02897,
            2.03195,
            2.03492,
            2.03789,
            2.04087,
            2.04385,
            2.04683,
            2.04981,
            2.05279,
            2.05578,
            2.05876,
            2.06174,
            2.06472,
            2.06771,
            2.07069,
            2.07368,
            2.07666,
            2.07965,
            2.08264,
            2.08562,
            2.08861,
            2.09159,
            2.09457,
            2.09756,
            2.10055,
            2.10355,
            2.10653,
            2.10952,
            2.11251,
            2.1155,
            2.11849,
            2.12147,
            2.12446,
            2.12745,
            2.13044,
            2.13344,
            2.13644,
            2.13943,
            2.14242,
            2.14542,
            2.14842,
            2.15142,
            2.1544,
            2.15739,
            2.16039,
            2.1634,
            2.1664,
            2.1694,
            2.1724,
            2.1754,
            2.1784,
            2.1814,
            2.1844,
            2.1874,
            2.1904,
            2.19339,
            2.19639,
            2.1994,
            2.20241,
            2.20541,
            2.20842,
            2.21142,
            2.21443,
            2.21743,
            2.22044,
            2.22344,
            2.22644,
            2.22944,
            2.23244,
            2.23544,
            2.23846,
            2.24148,
            2.24449,
            2.24749,
            2.2505,
            2.25351,
            2.25651,
            2.25953,
            2.26254,
            2.26555,
            2.26856,
            2.27157,
            2.27458,
            2.27759,
            2.2806,
            2.28362,
            2.28664,
            2.28965,
            2.29267,
            2.29568,
            2.2987,
            2.30171,
            2.30472,
            2.30774,
            2.31077,
            2.3138,
            2.31681,
            2.31982,
            2.32283,
            2.32585,
            2.32886,
            2.33188,
            2.33489,
            2.33792,
            2.34094,
            2.34396,
            2.34698,
            2.35,
            2.35301,
            2.35602,
            2.35904,
            2.36207,
            2.36509,
            2.36812,
            2.37114,
            2.37416,
            2.37719,
            2.38021,
            2.38323,
            2.38626,
            2.38929,
            2.39232,
            2.39535,
            2.39838,
            2.4014,
            2.40442,
            2.40744,
            2.41046,
            2.41349,
            2.41653,
            2.41956,
            2.4226,
            2.42563,
            2.42866,
            2.43169,
            2.43472,
            2.43776,
            2.44079,
            2.44383,
            2.44688,
            2.44992,
            2.45295,
            2.45599,
            2.45902,
            2.46206,
            2.4651,
            2.46814,
            2.47117,
            2.47421,
            2.47725,
            2.48029,
            2.48333,
            2.48637,
            2.48941,
            2.49246,
            2.4955,
            2.49855,
            2.5016,
            2.50465,
            2.5077,
            2.51075,
            2.51379,
            2.51683,
            2.51988,
            2.52294,
            2.52599,
            2.52903,
            2.53208,
            2.53513,
            2.53818,
            2.54123,
            2.54429,
            2.54735,
            2.55042,
            2.55347,
            2.55652,
            2.55957,
            2.56264,
            2.5657,
            2.56876,
            2.57183,
            2.57489,
            2.57795,
            2.58101,
            2.58406,
            2.58712,
            2.59018,
            2.59324,
            2.59631,
            2.59939,
            2.60246,
            2.60552,
            2.60859,
            2.61166,
            2.61473,
            2.6178,
            2.62088,
            2.62395,
            2.62702,
            2.63009,
            2.63317,
            2.63624,
            2.63932,
            2.6424,
            2.64548,
            2.64856,
            2.65163,
            2.65471,
            2.6578,
            2.66088,
            2.66397,
            2.66705,
            2.67013,
            2.67322,
            2.67631,
            2.67939,
            2.68248,
            2.68556,
            2.68864,
            2.69172,
            2.6948,
            2.69788,
            2.70097,
            2.70405,
            2.70714,
            2.71022,
            2.71331,
            2.71639,
            2.71948,
            2.72257,
            2.72567,
            2.72876,
            2.73184,
            2.73493,
            2.73801,
            2.74109,
            2.74418,
            2.74726,
            2.75034,
            2.75343,
            2.75651,
            2.7596,
            2.76268,
            2.76577,
            2.76885,
            2.77194,
            2.77502,
            2.77811,
            2.78119,
            2.78429,
            2.78738,
            2.79047,
            2.79356,
            2.79665,
            2.79973,
            2.80282,
            2.8059,
            2.80899,
            2.81207,
            2.81515,
            2.81822,
            2.8213,
            2.82438,
            2.82747,
            2.83056,
            2.83364,
            2.83673,
            2.83982,
            2.84291,
            2.84599,
            2.84908,
            2.85216,
            2.85525,
            2.85833,
            2.8614,
            2.86448,
            2.86756,
            2.87064,
            2.87372,
            2.8768,
            2.87988,
            2.88296,
            2.88604,
            2.88912,
            2.8922,
            2.89528,
            2.89836,
            2.90144,
            2.90452,
            2.9076,
            2.91067,
            2.91375,
            2.91682,
            2.91989,
            2.92296,
            2.92603,
            2.92911,
            2.93218,
            2.93525,
            2.93832,
            2.94139,
            2.94446,
            2.94753,
            2.9506,
            2.95367,
            2.95674,
            2.95981,
            2.96288,
            2.96595,
            2.96902,
            2.97209,
            2.97515,
            2.97822,
            2.98129,
            2.98436,
            2.98743,
            2.9905,
            2.99357,
            2.99664,
            2.9997,
            3.00277,
            3.00585,
            3.00892,
            3.01199,
            3.01507,
            3.01813,
            3.0212,
            3.02427,
            3.02734,
            3.03042,
            3.03349,
            3.03656,
            3.03963,
            3.0427,
            3.04578,
            3.04885,
            3.05193,
            3.055,
            3.05808,
            3.06116,
            3.06423,
            3.0673,
            3.07037,
            3.07344,
            3.07651,
            3.07958,
            3.08265,
            3.08573,
            3.08881,
            3.09189,
            3.09497,
            3.09804,
            3.10112,
            3.1042,
            3.10728,
            3.11036,
            3.11344,
            3.11652,
            3.11959,
            3.12267,
            3.12574,
            3.12882,
            3.1319,
            3.13498,
            3.13806,
            3.14115,
            3.14423,
            3.14732,
            3.1504,
            3.15348,
            3.15656,
            3.15965,
            3.16273,
            3.16581,
            3.1689,
            3.17198,
            3.17507,
            3.17815,
            3.18124,
            3.18432,
            3.18741,
            3.1905,
            3.19359,
            3.19668,
            3.19977,
            3.20286,
            3.20595,
            3.20904,
            3.21212,
            3.21521,
            3.21831,
            3.2214,
            3.2245,
            3.2276,
            3.23069,
            3.23378,
            3.23688,
            3.23997,
            3.24307,
            3.24617,
            3.24927,
            3.25237,
            3.25547,
            3.25857,
            3.26167,
            3.26477,
            3.26787,
            3.27097,
            3.27407,
            3.27717,
            3.28027,
            3.28337,
            3.28647,
            3.28957,
            3.29267,
            3.29577,
            3.29887,
            3.30197,
            3.30507,
            3.30817,
            3.31127,
            3.31437,
            3.31747,
            3.32058,
            3.32369,
            3.3268,
            3.3299,
            3.33301,
            3.33611,
            3.33921,
            3.34232,
            3.34542,
            3.34852,
            3.35161,
            3.35471,
            3.35781,
            3.36091,
            3.36401,
            3.36712,
            3.37022,
            3.37332,
            3.37644,
            3.37954,
            3.38265,
            3.38576,
            3.38886,
            3.39196,
            3.39507,
            3.39817,
            3.40127,
            3.40437,
            3.40747,
            3.41057,
            3.41367,
            3.41678,
            3.41989,
            3.423,
            3.42611,
            3.42922,
            3.43233,
            3.43543,
            3.43854,
            3.44164,
            3.44475,
            3.44786,
            3.45096,
            3.45406,
            3.45716,
            3.46027,
            3.46338,
            3.46649,
            3.4696,
            3.47271,
            3.47582,
            3.47893,
            3.48203,
            3.48514,
            3.48825,
            3.49136,
            3.49447,
            3.49758,
            3.50069,
            3.50379,
            3.50691,
            3.51002,
            3.51313,
            3.51624,
            3.51934,
            3.52245,
            3.52555,
            3.52866,
            3.53177,
            3.53487,
            3.53798,
            3.54109,
            3.54421,
            3.54731,
            3.55042,
            3.55353,
            3.55665,
            3.55976,
            3.56287,
            3.56598,
            3.56909,
            3.57219,
            3.5753,
            3.57841,
            3.58152,
            3.58463,
            3.58774,
            3.59085,
            3.59396,
            3.59707,
            3.60018,
            3.6033,
            3.60642,
            3.60953,
            3.61264,
            3.61575,
            3.61886,
            3.62197,
            3.62508,
            3.62819,
            3.6313,
            3.63441,
            3.63752,
            3.64064,
            3.64375,
            3.64687,
            3.64998,
            3.65311,
            3.65623,
            3.65934,
            3.66246,
            3.66557,
            3.66869,
            3.67181,
            3.67492,
            3.67803,
            3.68115,
            3.68427,
            3.68739,
            3.6905,
            3.69361,
            3.69673,
            3.69985,
            3.70297,
            3.70609,
            3.70921,
            3.71232,
            3.71544,
            3.71856,
            3.72168,
            3.7248,
            3.72792,
            3.73104,
            3.73416,
            3.73728,
            3.74039,
            3.74351,
            3.74662,
            3.74974,
            3.75287,
            3.75599,
            3.75911,
            3.76223,
            3.76535,
            3.76847,
            3.77159,
            3.7747,
            3.77782,
            3.78094,
            3.78406,
            3.78718,
            3.7903,
            3.79342,
            3.79653,
            3.79965,
            3.80277,
            3.80589,
            3.80901,
            3.81214,
            3.81526,
            3.81838,
            3.8215,
            3.82462,
            3.82774,
            3.83086,
            3.83399,
            3.83711,
            3.84023,
            3.84335,
            3.84647,
            3.84959,
            3.85271,
            3.85583,
            3.85895,
            3.86207,
            3.86519,
            3.86832,
            3.87144,
            3.87456,
            3.87769,
            3.88081,
            3.88394,
            3.88706,
            3.89019,
            3.89331,
            3.89643,
            3.89956,
            3.90268,
            3.9058,
            3.90892,
            3.91204,
            3.91516,
            3.91829,
            3.92141,
            3.92453,
            3.92766,
            3.93079,
            3.93391,
            3.93703,
            3.94016,
            3.94329,
            3.94642,
            3.94954,
            3.95266,
            3.95579,
            3.95892,
            3.96204,
            3.96516,
            3.96829,
            3.97141,
            3.97453,
            3.97766,
            3.98078,
            3.9839,
            3.98703,
            3.99017,
            3.99329,
            3.99642,
            3.99954,
            4.00267,
            4.0058,
            4.00893,
            4.01205,
            4.01517,
            4.01829,
            4.02142,
            4.02454,
            4.02767,
            4.0308,
            4.03393,
            4.03706,
            4.04018,
            4.04331,
            4.04644,
            4.04957,
            4.05269,
            4.05582,
            4.05894,
            4.06207,
            4.06519,
            4.06832,
            4.07145,
            4.07458,
            4.07771,
            4.08084,
            4.08397,
            4.0871,
            4.09023,
            4.09335,
            4.09648,
            4.09961,
            4.10274,
            4.10587,
            4.109,
            4.11213,
            4.11526,
            4.11839,
            4.12152,
            4.12465,
            4.12778,
            4.13091,
            4.13404,
            4.13716,
            4.14029,
            4.14342,
            4.14655,
            4.14968,
            4.15281,
            4.15594,
            4.15908,
            4.16221,
            4.16534,
            4.16847,
            4.17161,
            4.17474,
            4.17786,
            4.18099,
            4.18412,
            4.18725,
            4.19038,
            4.19351,
            4.19664,
            4.19977,
            4.20291,
            4.20604,
            4.20918,
            4.21231,
            4.21544,
            4.21858,
            4.22171,
            4.22484,
            4.22797,
            4.2311,
            4.23423,
            4.23735,
            4.24048,
            4.24361,
            4.24675,
            4.24988,
            4.25301,
            4.25614,
            4.25928,
            4.26242,
            4.26555,
            4.26868,
            4.27182,
            4.27496,
            4.27809,
            4.28122,
            4.28435,
            4.28748,
            4.29061,
            4.29374,
            4.29687,
            4.3,
            4.30314,
            4.30628,
            4.30942,
            4.31255,
            4.31569,
            4.31883,
            4.32195,
            4.32508,
            4.32822,
            4.33135,
            4.33449,
            4.33762,
            4.34075,
            4.34388,
            4.34702,
            4.35016,
            4.35329,
            4.35643,
            4.35956,
            4.3627,
            4.36583,
            4.36897,
            4.3721,
            4.37523,
            4.37837,
            4.38151,
            4.38464,
            4.38778,
            4.39091,
            4.39405,
            4.39718,
            4.40032,
            4.40345,
            4.40659,
            4.40972,
            4.41286,
            4.41599,
            4.41913,
            4.42227,
            4.4254,
            4.42854,
            4.43168,
            4.43482,
            4.43795,
            4.44109,
            4.44422,
            4.44735,
            4.45049,
            4.45362,
            4.45676,
            4.4599,
            4.46304,
            4.46618,
            4.46931,
            4.47245,
            4.47559,
            4.47873,
            4.48186,
            4.485,
            4.48814,
            4.49128,
            4.49442,
            4.49756,
            4.50069,
            4.50383,
            4.50696,
            4.51009,
            4.51323,
            4.51637,
            4.51951,
            4.52265,
            4.52579,
            4.52893,
            4.53207,
            4.53521,
            4.53835,
            4.54148,
            4.54462,
            4.54776,
            4.5509,
            4.55403,
            4.55717,
            4.56031,
            4.56345,
            4.56659,
            4.56973,
            4.57287,
            4.57601,
            4.57915,
            4.58229,
            4.58543,
            4.58857,
            4.59171,
            4.59485,
            4.59799,
            4.60112,
            4.60426,
            4.6074,
            4.61054,
            4.61368,
            4.61682,
            4.61996,
            4.6231,
            4.62624,
            4.62939,
            4.63253,
            4.63567,
            4.63881,
            4.64195,
            4.64509,
            4.64823,
            4.65137,
            4.65451,
            4.65765,
            4.66079,
            4.66393,
            4.66707,
            4.67021,
            4.67336,
            4.6765,
            4.67964,
            4.68278,
            4.68593,
            4.68907,
            4.69221,
            4.69535,
            4.6985,
            4.70164,
            4.70479,
            4.70792,
            4.71106,
            4.7142,
            4.71734,
            4.72048,
            4.72363,
            4.72677,
            4.72991,
            4.73306,
            4.7362,
            4.73935,
            4.74249,
            4.74563,
            4.74877,
            4.75191,
            4.75505,
            4.75819,
            4.76134,
            4.76448,
            4.76762,
            4.77077,
            4.77391,
            4.77706,
            4.7802,
            4.78334,
            4.78648,
            4.78963,
            4.79277,
            4.79592,
            4.79906,
            4.80221,
            4.80535,
            4.8085,
            4.81164,
            4.81478,
            4.81792,
            4.82107,
            4.8242,
            4.82735,
            4.83049,
            4.83364,
            4.83679,
            4.83993,
            4.84308,
            4.84622,
            4.84937,
            4.85251,
            4.85566,
            4.8588,
            4.86195,
            4.86509,
            4.86823,
            4.87137,
            4.87451,
            4.87765,
            4.88079,
            4.88393,
            4.88708,
            4.89022,
            4.89336,
            4.8965,
            4.89963,
            4.90277,
            4.90592,
            4.90907,
            4.91221,
            4.91536,
            4.9185,
            4.92164,
            4.92478,
            4.92792,
            4.93107,
            4.93421,
            4.93736,
            4.94049,
            4.94363,
            4.94677,
            4.94991,
            4.95306,
            4.9562,
            4.95935,
            4.96249,
            4.96563,
            4.96877,
            4.97191,
            4.97506,
            4.9782,
            4.98134,
            4.98449,
            4.98763,
            4.99077,
            4.99391,
            4.99705,
            5.00019,
            5.00334,
            5.00649,
            5.00964,
            5.01278,
            5.01592,
            5.01906,
            5.0222,
            5.02535,
            5.02849,
            5.03164,
            5.03479,
            5.03793,
            5.04107,
            5.04421,
            5.04736,
            5.0505
          ],
          [
            151.67859,
            154.96512,
            146.12286,
            147.21977,
            150.34451,
            146.37738,
            148.14581,
            145.54694,
            147.41373,
            145.56975,
            146.81772,
            142.18144,
            143.1577,
            145.09982,
            145.43872,
            139.37344,
            145.16217,
            143.47115,
            142.01378,
            142.79218,
            140.25914,
            143.46085,
            140.35875,
            137.05867,
            137.34703,
            140.46677,
            138.97002,
            135.24765,
            138.20448,
            137.25491,
            139.00882,
            139.88513,
            135.55447,
            134.59038,
            134.87732,
            135.20284,
            136.32172,
            136.37669,
            133.73639,
            131.8022,
            130.27597,
            135.12042,
            128.52429,
            136.35472,
            127.16349,
            131.63449,
            129.21889,
            129.91272,
            133.57196,
            132.02574,
            131.0954,
            130.53552,
            127.89456,
            130.179,
            129.68199,
            126.71318,
            129.94313,
            127.62804,
            126.28607,
            125.43176,
            122.16418,
            129.06061,
            126.79733,
            125.00812,
            124.3983,
            125.47691,
            122.16735,
            122.5416,
            126.75465,
            120.05199,
            121.99464,
            125.8984,
            120.7015,
            121.53837,
            123.17406,
            122.57529,
            123.16075,
            118.83912,
            121.53595,
            119.08036,
            118.21804,
            120.17654,
            120.8527,
            116.66998,
            115.31068,
            119.35564,
            117.97445,
            116.81335,
            114.13303,
            118.00964,
            115.79765,
            114.56139,
            112.08808,
            110.42447,
            111.86541,
            113.54001,
            113.6179,
            113.46384,
            113.49154,
            112.08157,
            111.86994,
            113.17012,
            114.01116,
            113.84632,
            111.45325,
            110.54933,
            110.05137,
            109.79979,
            110.11922,
            110.46404,
            107.16267,
            110.65266,
            109.79041,
            107.84109,
            109.93448,
            109.77744,
            107.84405,
            107.10019,
            108.63173,
            107.14397,
            108.55418,
            108.10773,
            104.96195,
            108.33178,
            104.36501,
            104.89415,
            104.53761,
            103.38358,
            104.29643,
            104.72348,
            101.60017,
            103.20528,
            104.97266,
            103.7002,
            102.02895,
            102.51488,
            101.43759,
            102.50394,
            103.44385,
            104.49822,
            105.04677,
            106.36261,
            103.71356,
            101.07021,
            102.331,
            100.26807,
            104.44079,
            102.52723,
            100.35367,
            99.33678,
            102.30482,
            101.90608,
            102.71796,
            98.9176,
            100.5607,
            99.0723,
            99.66648,
            101.37773,
            103.66711,
            100.28419,
            97.25172,
            98.46709,
            97.82205,
            96.74827,
            98.0133,
            96.55752,
            97.49539,
            96.92295,
            94.01995,
            94.25869,
            97.19255,
            94.50075,
            94.0918,
            94.43478,
            95.70746,
            93.43829,
            93.12602,
            95.66431,
            93.69129,
            95.6888,
            92.86893,
            93.18236,
            91.71922,
            92.05048,
            92.2873,
            91.12456,
            91.25148,
            89.59141,
            91.26028,
            89.65695,
            86.70784,
            86.71957,
            88.25997,
            86.78284,
            86.80022,
            86.40946,
            86.82713,
            82.49071,
            85.26308,
            83.86842,
            84.17387,
            83.72972,
            86.3424,
            86.71028,
            87.00432,
            85.82362,
            87.61778,
            85.86476,
            87.19047,
            85.72998,
            83.63211,
            86.38245,
            83.14733,
            82.29301,
            82.83313,
            85.67464,
            82.90782,
            82.92111,
            81.72778,
            80.92511,
            82.06776,
            83.10833,
            80.41116,
            82.15145,
            78.96812,
            79.07284,
            82.85329,
            85.04374,
            84.78547,
            84.10244,
            88.73816,
            92.13991,
            88.44998,
            88.13779,
            90.75023,
            87.90503,
            85.88876,
            87.04452,
            85.73247,
            86.08581,
            84.58182,
            81.12854,
            80.59788,
            83.11719,
            83.37215,
            85.95499,
            87.01272,
            85.52728,
            86.27924,
            83.04169,
            88.92033,
            88.90015,
            90.13036,
            88.53766,
            88.38093,
            88.30693,
            87.93519,
            87.31003,
            85.41824,
            81.50006,
            81.75227,
            82.32121,
            81.01441,
            78.2179,
            78.8942,
            80.40424,
            77.08106,
            80.36031,
            79.7355,
            80.09289,
            77.81078,
            75.75254,
            77.3052,
            79.08672,
            77.47971,
            74.02759,
            76.04483,
            75.24264,
            75.74809,
            77.27322,
            74.36749,
            72.72277,
            72.21811,
            74.56718,
            72.02679,
            73.93791,
            71.57797,
            72.08537,
            72.08794,
            71.68851,
            69.65469,
            72.90819,
            71.72353,
            72.01505,
            74.79423,
            72.84328,
            73.7121,
            72.83858,
            68.86052,
            73.01883,
            65.90363,
            71.33718,
            70.02897,
            69.9688,
            69.09557,
            69.94087,
            67.05543,
            66.82827,
            66.29939,
            68.98931,
            65.00404,
            66.86436,
            66.16227,
            66.96893,
            66.99506,
            66.10928,
            67.08312,
            65.715,
            64.43463,
            66.3586,
            68.67484,
            65.93783,
            67.8509,
            65.96259,
            65.37909,
            65.89844,
            63.35941,
            62.30144,
            61.62339,
            64.05969,
            63.3043,
            61.30643,
            59.26458,
            60.34379,
            59.97191,
            59.54952,
            58.25468,
            60.25738,
            60.27427,
            57.48536,
            58.6817,
            58.64079,
            56.1946,
            57.55609,
            58.02556,
            57.32584,
            59.106,
            60.95794,
            63.09832,
            64.43986,
            67.16123,
            70.63814,
            66.9455,
            66.92552,
            69.10274,
            69.52599,
            71.71831,
            70.90424,
            71.78686,
            69.04809,
            66.3029,
            67.55633,
            65.03906,
            65.93821,
            65.47387,
            63.75042,
            61.63078,
            61.05944,
            60.94521,
            58.11929,
            59.36221,
            59.10266,
            57.47951,
            59.00992,
            55.70177,
            56.75856,
            58.80791,
            58.22174,
            56.73295,
            54.68222,
            54.14178,
            52.02672,
            54.44276,
            54.53842,
            53.28052,
            49.52042,
            54.4068,
            53.35149,
            53.89469,
            51.24824,
            52.2368,
            51.03986,
            49.07127,
            49.65629,
            49.88424,
            49.68884,
            48.22811,
            47.45524,
            46.84797,
            45.08011,
            44.4249,
            42.03831,
            44.4132,
            41.02956,
            42.38716,
            43.11874,
            40.47825,
            42.44934,
            39.56373,
            38.23127,
            38.96109,
            38.09151,
            39.16898,
            37.80898,
            38.59242,
            38.146,
            40.55325,
            41.00835,
            42.64209,
            47.22901,
            50.7187,
            53.64821,
            54.59295,
            56.33318,
            58.08565,
            62.4265,
            59.08987,
            61.06971,
            59.49132,
            60.92135,
            59.27256,
            56.97613,
            60.969,
            59.56085,
            59.09756,
            58.59793,
            59.5543,
            62.75116,
            60.3492,
            64.07829,
            60.91494,
            62.88606,
            62.80477,
            59.97259,
            61.70721,
            60.68231,
            61.05908,
            60.79692,
            61.37038,
            58.69576,
            55.9785,
            57.40588,
            55.92635,
            53.92755,
            54.15986,
            54.04559,
            53.09345,
            51.85989,
            52.81476,
            52.26319,
            52.39308,
            50.04329,
            47.2577,
            48.57368,
            47.37178,
            48.24686,
            47.19032,
            45.03503,
            47.9392,
            49.29439,
            45.33421,
            50.38053,
            50.78895,
            49.40684,
            53.64894,
            53.67818,
            57.02828,
            57.47971,
            61.63604,
            65.12762,
            65.67773,
            66.44328,
            70.71803,
            70.10433,
            71.44883,
            69.75347,
            69.74812,
            66.90186,
            68.33784,
            65.84985,
            64.02817,
            61.1443,
            60.12091,
            55.10767,
            56.46302,
            56.45994,
            54.71982,
            55.28766,
            53.86523,
            58.06272,
            60.27473,
            59.17572,
            59.81861,
            59.05895,
            62.94326,
            65.17245,
            63.84746,
            64.45107,
            62.85448,
            66.53005,
            67.82271,
            66.2876,
            65.69076,
            64.68236,
            64.96649,
            64.5163,
            63.18656,
            64.80788,
            64.68529,
            62.92664,
            60.21928,
            58.56725,
            60.88463,
            57.56331,
            54.21425,
            55.49548,
            56.03641,
            58.1347,
            57.31815,
            54.73016,
            58.75641,
            58.22818,
            55.53123,
            55.94856,
            58.99895,
            57.58484,
            57.30671,
            56.64159,
            54.3592,
            53.38309,
            52.96521,
            50.34454,
            47.4148,
            41.98162,
            41.86126,
            39.58069,
            34.39086,
            33.79683,
            32.23958,
            32.37728,
            34.74371,
            35.33146,
            40.76434,
            44.33863,
            46.53672,
            51.41888,
            55.78484,
            54.5447,
            58.29476,
            59.85684,
            60.84264,
            56.3597,
            59.78408,
            56.17585,
            52.20712,
            52.3122,
            47.81908,
            44.64537,
            39.58559,
            38.75145,
            34.29524,
            34.09295,
            33.72279,
            33.22068,
            34.32444,
            32.2342,
            34.83237,
            33.3999,
            33.12761,
            32.69744,
            32.53882,
            33.79492,
            33.44861,
            31.88566,
            32.78159,
            31.53952,
            32.764,
            32.69688,
            33.60606,
            35.85138,
            33.92288,
            36.14018,
            38.39687,
            39.60953,
            41.76736,
            43.65165,
            42.80041,
            44.03502,
            44.62266,
            46.47333,
            45.84837,
            43.98229,
            44.47447,
            42.13458,
            40.46958,
            37.05712,
            35.47671,
            33.93208,
            32.71073,
            32.86223,
            32.36207,
            32.27613,
            32.88135,
            37.27658,
            40.26937,
            42.81364,
            45.22857,
            50.22297,
            57.0151,
            60.90221,
            67.66484,
            68.74017,
            70.43781,
            74.30874,
            74.49513,
            75.2964,
            78.88387,
            81.99029,
            81.61953,
            83.14436,
            80.67625,
            74.14402,
            74.14103,
            73.80248,
            69.58086,
            64.58943,
            64.09811,
            58.13295,
            58.26686,
            51.43901,
            48.29038,
            45.25338,
            45.91692,
            40.29144,
            41.46063,
            41.10568,
            42.03524,
            41.29332,
            43.06839,
            46.38957,
            48.66548,
            51.32414,
            57.63791,
            54.88393,
            57.71931,
            57.56475,
            63.03808,
            60.03095,
            62.49124,
            57.66295,
            59.82507,
            62.58856,
            58.36517,
            58.87917,
            56.71666,
            54.10352,
            54.75388,
            51.7575,
            50.1431,
            51.44231,
            46.62114,
            41.89851,
            43.85155,
            45.43644,
            49.54965,
            48.89424,
            49.40925,
            53.65924,
            56.47679,
            60.87467,
            64.16859,
            68.4771,
            70.95293,
            70.7801,
            79.52008,
            81.89245,
            81.91302,
            83.02463,
            80.041,
            83.22583,
            85.14468,
            81.70592,
            80.72236,
            76.89812,
            70.20625,
            70.94959,
            69.64584,
            64.37529,
            66.33892,
            61.41081,
            63.07863,
            57.95058,
            56.07147,
            57.34921,
            54.49882,
            53.73684,
            51.25388,
            43.49205,
            42.69384,
            43.01755,
            40.573,
            36.95741,
            37.48029,
            33.79208,
            30.89509,
            32.62561,
            33.41542,
            31.20753,
            33.02467,
            34.36147,
            35.22836,
            37.67589,
            40.46024,
            41.84993,
            43.10184,
            43.40211,
            47.93842,
            46.84593,
            48.75673,
            51.678,
            48.83425,
            50.38542,
            52.16429,
            55.70708,
            54.54267,
            56.19112,
            60.82167,
            64.34438,
            65.34946,
            68.81216,
            69.67515,
            73.72577,
            73.04782,
            70.62163,
            72.67024,
            70.24735,
            69.18932,
            64.70693,
            66.09666,
            66.93327,
            66.2386,
            63.93674,
            63.21484,
            61.88987,
            67.97962,
            64.64693,
            65.46869,
            67.84521,
            69.81264,
            73.57384,
            72.00531,
            76.61945,
            74.55632,
            78.57362,
            79.30003,
            82.69703,
            89.30152,
            90.9848,
            90.56718,
            95.20605,
            89.98813,
            92.0995,
            98.20318,
            89.93326,
            91.33112,
            87.6017,
            84.47752,
            81.47915,
            77.00624,
            72.83652,
            69.41924,
            66.31409,
            63.01242,
            56.98614,
            57.8683,
            53.62495,
            57.99534,
            56.8111,
            55.19885,
            58.06012,
            62.69381,
            62.66835,
            64.40572,
            64.82112,
            65.8184,
            62.39485,
            61.97063,
            58.73821,
            55.08872,
            55.34488,
            50.60378,
            48.26746,
            44.30289,
            38.4345,
            37.40823,
            33.76288,
            29.82129,
            28.8639,
            23.50603,
            22.65091,
            20.1484,
            21.1346,
            19.11412,
            22.13676,
            18.36516,
            17.86074,
            20.71564,
            16.29545,
            17.87432,
            15.7436,
            14.82727,
            16.78199,
            13.89779,
            14.35473,
            16.08409,
            15.20632,
            17.0804,
            17.59181,
            20.56714,
            20.74832,
            23.04603,
            25.28456,
            26.89221,
            29.46044,
            32.70472,
            38.43393,
            40.88151,
            44.23454,
            48.34486,
            54.88114,
            56.09672,
            63.97706,
            63.06361,
            68.18587,
            67.55306,
            67.69743,
            62.723,
            60.91604,
            59.53344,
            56.59926,
            53.27218,
            46.77269,
            41.59762,
            35.4248,
            32.05987,
            26.39119,
            22.50134,
            18.09419,
            18.78523,
            18.32647,
            17.72916,
            17.83593,
            16.83613,
            18.17009,
            19.91945,
            17.45073,
            16.89306,
            20.55808,
            21.6544,
            20.86367,
            21.4655,
            23.90872,
            24.11308,
            23.64617,
            25.75879,
            23.87965,
            24.82701,
            26.59593,
            26.92435,
            23.86214,
            21.62368,
            20.41103,
            17.28641,
            15.13178,
            12.34768,
            8.5824,
            7.24633,
            4.40271,
            3.31608,
            3.26746,
            2.07757,
            2.59891,
            2.13191,
            2.02991,
            2.39722,
            1.66916,
            2.45356,
            1.98492,
            2.66541,
            2.24932,
            2.46093,
            1.88675,
            2.20328,
            2.62385,
            2.57232,
            2.20702,
            3.57662,
            3.42087,
            2.73902,
            4.22166,
            4.06877,
            5.17849,
            6.45012,
            5.61259,
            5.72364,
            5.51144,
            5.4106,
            6.64559,
            5.79959,
            5.21126,
            4.89675,
            5.75976,
            5.22584,
            6.12542,
            6.61281,
            7.58778,
            5.99304,
            7.92946,
            8.52684,
            9.50081,
            11.86756,
            11.65748,
            12.09464,
            12.58765,
            14.17341,
            14.78556,
            15.68881,
            17.25047,
            18.79659,
            19.092,
            19.20478,
            19.87127,
            22.23696,
            21.4936,
            21.38142,
            18.78992,
            19.84854,
            18.77427,
            18.07362,
            15.75867,
            14.91708,
            12.58324,
            13.85686,
            11.33117,
            10.66794,
            10.18683,
            12.06236,
            8.8925,
            8.51796,
            8.08724,
            8.25869,
            6.71788,
            6.17198,
            6.95485,
            7.2363,
            7.29086,
            8.56643,
            10.34626,
            14.67177,
            14.23569,
            18.8499,
            24.19661,
            28.44873,
            33.10151,
            34.24254,
            38.95043,
            39.24785,
            37.88105,
            39.45535,
            38.9568,
            36.64566,
            36.05885,
            32.64955,
            32.88264,
            30.69897,
            32.37123,
            34.08226,
            35.14581,
            35.17773,
            39.92722,
            36.93182,
            35.10346,
            37.78674,
            37.7737,
            35.42948,
            35.62847,
            34.06938,
            32.28599,
            32.06995,
            29.93602,
            31.89734,
            30.12258,
            31.81685,
            32.37103,
            30.78781,
            30.821,
            30.70166,
            28.79783,
            25.42822,
            27.28022,
            21.95371,
            20.47182,
            19.44516,
            18.64479,
            15.35982,
            13.2414,
            12.53008,
            12.49804,
            13.7253,
            11.12079,
            11.75211,
            10.13027,
            9.72644,
            8.46556,
            8.71425,
            7.7379,
            5.70933,
            5.06591,
            6.11187,
            4.19295,
            4.60462,
            3.50375,
            3.0412,
            2.45889,
            3.10536,
            2.3451,
            1.81762,
            1.11387
          ],
          [
            1.76657,
            1.78357,
            1.73075,
            1.73996,
            1.7611,
            1.74062,
            1.7541,
            1.73987,
            1.74862,
            1.73531,
            1.74462,
            1.7189,
            1.72579,
            1.7375,
            1.73994,
            1.70718,
            1.74628,
            1.73691,
            1.72751,
            1.73263,
            1.71945,
            1.74126,
            1.72326,
            1.70368,
            1.70581,
            1.72498,
            1.71581,
            1.69351,
            1.71277,
            1.7081,
            1.72036,
            1.72711,
            1.70136,
            1.69649,
            1.69916,
            1.70205,
            1.71031,
            1.71222,
            1.69695,
            1.68507,
            1.67572,
            1.70833,
            1.6683,
            1.72023,
            1.6623,
            1.69236,
            1.67647,
            1.68067,
            1.70575,
            1.69879,
            1.69512,
            1.69142,
            1.67415,
            1.69078,
            1.6896,
            1.67163,
            1.69358,
            1.67917,
            1.66992,
            1.66387,
            1.64368,
            1.69217,
            1.67903,
            1.66692,
            1.66264,
            1.67154,
            1.65121,
            1.65491,
            1.68364,
            1.63917,
            1.65387,
            1.68164,
            1.64773,
            1.65454,
            1.66695,
            1.6645,
            1.66999,
            1.64014,
            1.65835,
            1.643,
            1.63923,
            1.6545,
            1.65988,
            1.63163,
            1.62233,
            1.65073,
            1.64234,
            1.6362,
            1.61895,
            1.64682,
            1.63192,
            1.62421,
            1.60767,
            1.59684,
            1.60845,
            1.62167,
            1.62328,
            1.62323,
            1.62346,
            1.61306,
            1.61252,
            1.62503,
            1.63424,
            1.63272,
            1.61509,
            1.60826,
            1.60441,
            1.60347,
            1.60917,
            1.61507,
            1.59078,
            1.61627,
            1.61161,
            1.60015,
            1.61738,
            1.61472,
            1.59896,
            1.59532,
            1.60905,
            1.59952,
            1.61073,
            1.60818,
            1.58561,
            1.61187,
            1.58347,
            1.58894,
            1.58737,
            1.57934,
            1.587,
            1.59037,
            1.56661,
            1.57994,
            1.59471,
            1.58659,
            1.57565,
            1.58109,
            1.57159,
            1.57867,
            1.58769,
            1.59861,
            1.60456,
            1.61489,
            1.59503,
            1.57576,
            1.58677,
            1.57149,
            1.6045,
            1.59057,
            1.57477,
            1.56791,
            1.59231,
            1.59034,
            1.597,
            1.56716,
            1.58094,
            1.57159,
            1.57863,
            1.5926,
            1.61097,
            1.58504,
            1.56148,
            1.57191,
            1.56761,
            1.55985,
            1.57128,
            1.56083,
            1.57026,
            1.56777,
            1.54526,
            1.54689,
            1.57048,
            1.54961,
            1.54728,
            1.55082,
            1.56186,
            1.54428,
            1.54334,
            1.56574,
            1.54909,
            1.5651,
            1.54332,
            1.5481,
            1.53722,
            1.54018,
            1.54263,
            1.53525,
            1.5387,
            1.52486,
            1.53863,
            1.52488,
            1.49965,
            1.50008,
            1.51521,
            1.50433,
            1.50553,
            1.50306,
            1.50691,
            1.46837,
            1.49286,
            1.48214,
            1.48637,
            1.48409,
            1.50875,
            1.51264,
            1.51524,
            1.50545,
            1.52292,
            1.50942,
            1.52079,
            1.50775,
            1.49034,
            1.51642,
            1.48881,
            1.48113,
            1.48605,
            1.51264,
            1.48931,
            1.48979,
            1.47913,
            1.47258,
            1.48431,
            1.49484,
            1.47055,
            1.48655,
            1.45962,
            1.46306,
            1.49803,
            1.5167,
            1.51427,
            1.50979,
            1.55252,
            1.58228,
            1.55056,
            1.54842,
            1.57192,
            1.54768,
            1.53032,
            1.54115,
            1.53045,
            1.53456,
            1.52233,
            1.49218,
            1.48848,
            1.51272,
            1.51611,
            1.54032,
            1.55059,
            1.53661,
            1.54267,
            1.51486,
            1.5697,
            1.57032,
            1.58075,
            1.56685,
            1.56703,
            1.56794,
            1.56554,
            1.56085,
            1.5444,
            1.509,
            1.5116,
            1.51694,
            1.50544,
            1.48162,
            1.49043,
            1.50453,
            1.47283,
            1.5037,
            1.49779,
            1.50186,
            1.48191,
            1.46356,
            1.479,
            1.49647,
            1.48234,
            1.45013,
            1.47086,
            1.46413,
            1.4698,
            1.48493,
            1.45735,
            1.44267,
            1.43919,
            1.46295,
            1.43824,
            1.45791,
            1.4353,
            1.44084,
            1.44089,
            1.43722,
            1.41828,
            1.45265,
            1.44199,
            1.4461,
            1.47423,
            1.45512,
            1.46461,
            1.45735,
            1.41837,
            1.46184,
            1.38999,
            1.44596,
            1.43245,
            1.43302,
            1.42564,
            1.43546,
            1.40617,
            1.40419,
            1.39834,
            1.42618,
            1.38589,
            1.40713,
            1.40106,
            1.41089,
            1.41175,
            1.40246,
            1.41361,
            1.40137,
            1.38963,
            1.41061,
            1.43541,
            1.40676,
            1.42725,
            1.40825,
            1.40349,
            1.4101,
            1.38295,
            1.37167,
            1.3647,
            1.39194,
            1.38538,
            1.36506,
            1.34346,
            1.35681,
            1.35359,
            1.34957,
            1.3354,
            1.35831,
            1.35869,
            1.32792,
            1.34272,
            1.34319,
            1.31578,
            1.33205,
            1.33755,
            1.32993,
            1.35172,
            1.3741,
            1.39977,
            1.41635,
            1.44608,
            1.48293,
            1.44479,
            1.44638,
            1.47127,
            1.47694,
            1.50099,
            1.49247,
            1.50176,
            1.47379,
            1.44513,
            1.46036,
            1.43472,
            1.44544,
            1.44012,
            1.42125,
            1.39889,
            1.39385,
            1.39342,
            1.36159,
            1.3768,
            1.37448,
            1.35594,
            1.37418,
            1.33573,
            1.34948,
            1.37471,
            1.3685,
            1.35155,
            1.32702,
            1.32053,
            1.29501,
            1.32551,
            1.32784,
            1.31407,
            1.26809,
            1.32937,
            1.31662,
            1.32399,
            1.29174,
            1.3047,
            1.29019,
            1.26575,
            1.27408,
            1.27782,
            1.27617,
            1.25789,
            1.24753,
            1.23929,
            1.21661,
            1.20865,
            1.17731,
            1.21192,
            1.16563,
            1.18476,
            1.19498,
            1.15794,
            1.18603,
            1.14593,
            1.12738,
            1.13855,
            1.1262,
            1.14219,
            1.12227,
            1.13458,
            1.12929,
            1.16534,
            1.17215,
            1.19562,
            1.2591,
            1.30564,
            1.34331,
            1.35554,
            1.37767,
            1.39976,
            1.45178,
            1.41292,
            1.43703,
            1.41928,
            1.43713,
            1.4181,
            1.3909,
            1.43945,
            1.42337,
            1.41839,
            1.41292,
            1.42525,
            1.46409,
            1.43648,
            1.48022,
            1.44342,
            1.46764,
            1.46774,
            1.43526,
            1.45688,
            1.44523,
            1.45009,
            1.44755,
            1.45503,
            1.42358,
            1.3908,
            1.40897,
            1.39122,
            1.36668,
            1.37037,
            1.36967,
            1.3578,
            1.34215,
            1.35556,
            1.34988,
            1.35233,
            1.32197,
            1.28476,
            1.30238,
            1.28644,
            1.2997,
            1.28674,
            1.25778,
            1.2985,
            1.31698,
            1.26319,
            1.33228,
            1.33841,
            1.32093,
            1.37743,
            1.37863,
            1.42171,
            1.42809,
            1.47974,
            1.52202,
            1.52946,
            1.53938,
            1.58767,
            1.58027,
            1.59645,
            1.5788,
            1.57989,
            1.54834,
            1.56572,
            1.53764,
            1.51676,
            1.48253,
            1.47074,
            1.40978,
            1.42864,
            1.42902,
            1.40724,
            1.41531,
            1.3978,
            1.45111,
            1.47805,
            1.46482,
            1.47353,
            1.46552,
            1.51506,
            1.543,
            1.52712,
            1.53455,
            1.51688,
            1.56207,
            1.57813,
            1.56111,
            1.5544,
            1.54268,
            1.54638,
            1.54135,
            1.52578,
            1.54568,
            1.54539,
            1.5262,
            1.49432,
            1.47389,
            1.50298,
            1.46164,
            1.41885,
            1.43721,
            1.44589,
            1.4733,
            1.46346,
            1.4304,
            1.48241,
            1.47614,
            1.442,
            1.44797,
            1.48758,
            1.47074,
            1.46892,
            1.46151,
            1.4315,
            1.41864,
            1.41454,
            1.38047,
            1.34002,
            1.26122,
            1.25931,
            1.22441,
            1.14256,
            1.13415,
            1.10842,
            1.11119,
            1.15174,
            1.16232,
            1.24912,
            1.30295,
            1.33508,
            1.40361,
            1.46246,
            1.44747,
            1.49769,
            1.51792,
            1.53066,
            1.4745,
            1.51999,
            1.47373,
            1.4209,
            1.42323,
            1.36182,
            1.31652,
            1.24008,
            1.22727,
            1.15478,
            1.15189,
            1.14661,
            1.13879,
            1.15773,
            1.12225,
            1.16758,
            1.14426,
            1.1403,
            1.13358,
            1.1308,
            1.1524,
            1.14728,
            1.12104,
            1.13718,
            1.11579,
            1.13794,
            1.13767,
            1.15336,
            1.19043,
            1.15811,
            1.19672,
            1.23476,
            1.25508,
            1.28958,
            1.31855,
            1.30601,
            1.3259,
            1.33574,
            1.36274,
            1.35317,
            1.32672,
            1.3355,
            1.30092,
            1.27594,
            1.22041,
            1.19321,
            1.16799,
            1.14863,
            1.15182,
            1.14274,
            1.14185,
            1.15391,
            1.22964,
            1.27855,
            1.31875,
            1.35571,
            1.42912,
            1.52379,
            1.57564,
            1.66027,
            1.67311,
            1.69545,
            1.74326,
            1.74619,
            1.75631,
            1.79886,
            1.83519,
            1.83241,
            1.85085,
            1.82322,
            1.74759,
            1.74849,
            1.74586,
            1.69609,
            1.63478,
            1.62914,
            1.55201,
            1.55447,
            1.46136,
            1.41663,
            1.37194,
            1.38256,
            1.29569,
            1.31505,
            1.3104,
            1.32596,
            1.31438,
            1.34261,
            1.39427,
            1.42887,
            1.4676,
            1.55551,
            1.51871,
            1.55827,
            1.55808,
            1.63254,
            1.59306,
            1.62493,
            1.56131,
            1.59096,
            1.62801,
            1.57285,
            1.5804,
            1.5517,
            1.51699,
            1.52803,
            1.48608,
            1.4622,
            1.48193,
            1.41276,
            1.33977,
            1.36969,
            1.39425,
            1.45734,
            1.44876,
            1.457,
            1.51893,
            1.55861,
            1.61887,
            1.66405,
            1.72055,
            1.75099,
            1.74886,
            1.85584,
            1.8852,
            1.88518,
            1.89774,
            1.86394,
            1.90134,
            1.92519,
            1.88792,
            1.87625,
            1.83091,
            1.75133,
            1.76276,
            1.74606,
            1.6779,
            1.70493,
            1.64245,
            1.66574,
            1.59746,
            1.57155,
            1.58936,
            1.55016,
            1.54038,
            1.50487,
            1.38648,
            1.37436,
            1.3805,
            1.3413,
            1.2805,
            1.29012,
            1.22577,
            1.17276,
            1.20588,
            1.22097,
            1.18038,
            1.21483,
            1.23991,
            1.25576,
            1.2984,
            1.34569,
            1.36937,
            1.39038,
            1.39572,
            1.46758,
            1.45193,
            1.48225,
            1.52656,
            1.4846,
            1.50892,
            1.53624,
            1.58839,
            1.57255,
            1.59701,
            1.66214,
            1.70933,
            1.72271,
            1.76907,
            1.78128,
            1.83286,
            1.82506,
            1.79553,
            1.82246,
            1.79298,
            1.78054,
            1.72261,
            1.7418,
            1.75413,
            1.74615,
            1.71492,
            1.70478,
            1.68818,
            1.77064,
            1.72715,
            1.73858,
            1.77075,
            1.79717,
            1.84628,
            1.82776,
            1.8851,
            1.85927,
            1.91189,
            1.92387,
            1.96342,
            2.03908,
            2.0604,
            2.05781,
            2.10945,
            2.05049,
            2.07661,
            2.14655,
            2.05458,
            2.0709,
            2.02904,
            1.99337,
            1.95952,
            1.90677,
            1.85424,
            1.80998,
            1.77042,
            1.72718,
            1.64163,
            1.65338,
            1.59313,
            1.65836,
            1.64205,
            1.6193,
            1.66226,
            1.72887,
            1.72948,
            1.7542,
            1.75965,
            1.77306,
            1.72787,
            1.7234,
            1.67687,
            1.62307,
            1.6285,
            1.5587,
            1.52255,
            1.45904,
            1.36057,
            1.34374,
            1.27703,
            1.20056,
            1.18132,
            1.06626,
            1.04704,
            0.98786,
            1.01216,
            0.96296,
            1.03665,
            0.9446,
            0.93232,
            1.00486,
            0.89165,
            0.93431,
            0.87736,
            0.8518,
            0.90614,
            0.82468,
            0.83861,
            0.8881,
            0.86366,
            0.91561,
            0.92976,
            1.00597,
            1.01121,
            1.06644,
            1.11743,
            1.15299,
            1.20776,
            1.27303,
            1.3797,
            1.42331,
            1.48191,
            1.54986,
            1.65098,
            1.66952,
            1.78404,
            1.7724,
            1.84421,
            1.83652,
            1.83909,
            1.77124,
            1.74689,
            1.72724,
            1.68373,
            1.6347,
            1.53374,
            1.44649,
            1.33418,
            1.27026,
            1.15401,
            1.06547,
            0.95498,
            0.97397,
            0.96322,
            0.94766,
            0.95066,
            0.924,
            0.96032,
            1.00608,
            0.94225,
            0.92713,
            1.0228,
            1.05039,
            1.03164,
            1.04616,
            1.104,
            1.10989,
            1.10012,
            1.14853,
            1.1062,
            1.1285,
            1.16856,
            1.1762,
            1.10777,
            1.05513,
            1.02569,
            0.94446,
            0.88401,
            0.7987,
            0.66612,
            0.61243,
            0.47754,
            0.41451,
            0.41166,
            0.32849,
            0.36754,
            0.33295,
            0.32505,
            0.35345,
            0.29507,
            0.35789,
            0.322,
            0.37323,
            0.34302,
            0.35896,
            0.31446,
            0.33997,
            0.37107,
            0.36747,
            0.34055,
            0.43373,
            0.42431,
            0.37983,
            0.472,
            0.46368,
            0.52311,
            0.58397,
            0.54514,
            0.55076,
            0.54044,
            0.53573,
            0.5944,
            0.5555,
            0.52642,
            0.51052,
            0.55423,
            0.52789,
            0.5712,
            0.59385,
            0.63675,
            0.56629,
            0.6518,
            0.67622,
            0.71412,
            0.7983,
            0.79136,
            0.80631,
            0.82288,
            0.87397,
            0.89323,
            0.91969,
            0.96433,
            1.0076,
            1.01616,
            1.01928,
            1.03727,
            1.09821,
            1.08009,
            1.07718,
            1.01015,
            1.03892,
            1.01077,
            0.99192,
            0.92698,
            0.90282,
            0.82971,
            0.87117,
            0.78757,
            0.76395,
            0.74693,
            0.81324,
            0.69866,
            0.68418,
            0.66702,
            0.67432,
            0.60821,
            0.5832,
            0.61959,
            0.63224,
            0.63459,
            0.68807,
            0.75659,
            0.90128,
            0.888,
            1.02228,
            1.15881,
            1.25727,
            1.35703,
            1.38079,
            1.47324,
            1.47921,
            1.45374,
            1.48492,
            1.47665,
            1.43296,
            1.42202,
            1.35337,
            1.35837,
            1.31259,
            1.3488,
            1.38564,
            1.40809,
            1.40937,
            1.50162,
            1.44415,
            1.40752,
            1.45983,
            1.46151,
            1.41718,
            1.42173,
            1.39088,
            1.35469,
            1.35039,
            1.30403,
            1.34671,
            1.31092,
            1.34812,
            1.35946,
            1.32612,
            1.32755,
            1.32487,
            1.28276,
            1.20677,
            1.2517,
            1.12325,
            1.085,
            1.05768,
            1.03582,
            0.94001,
            0.87311,
            0.8506,
            0.85038,
            0.89155,
            0.80257,
            0.82484,
            0.76578,
            0.75041,
            0.70061,
            0.71152,
            0.67096,
            0.57673,
            0.54312,
            0.59646,
            0.49414,
            0.51806,
            0.45233,
            0.42174,
            0.37942,
            0.42655,
            0.37079,
            0.32645,
            0.25554
          ]
        ]
      }
    }
  },
  "experimental_conditions": {
    "001": {
      "0": {
        "detector": [
          {
            "x4_code": "(SI)",
            "free_txt": [
              " 15 Si detector with an active area of 10x10 mm2",
              " and 350 um thickness"
            ]
          },
          {
            "x4_code": "(SI)",
            "free_txt": [
              " Eight Si detectors placed in the chamber to",
              " detect ions elastically scattered from the Ti foil at",
              " a 21 degree angle to monitor the beam intensity"
            ]
          }
        ],
        "facility": [
          {
            "x4_code": "(CYCLO,4KASATN)",
            "free_txt": [
              " DC60 cyclotron"
            ]
          }
        ],
        "method": [
          {
            "x4_code": "(TTM,TOFDE)",
            "free_txt": []
          }
        ],
        "part-det": [
          {
            "x4_code": "(A)",
            "free_txt": []
          }
        ],
        "sample": [
          {
            "x4_code": null,
            "free_txt": [
              "He gas with purity 99.99%."
            ]
          }
        ]
      }
    },
    "002": {
      "0": {
        "err-analys": [
          {
            "x4_code": "(ERR-S)",
            "free_txt": [
              " Statistical uncertainty"
            ]
          }
        ],
        "status": [
          {
            "x4_code": "(TABLE,,D.K.Nauruzbayev+,J,PPN,53,312,2022)",
            "free_txt": [
              " Fig.3"
            ]
          }
        ]
      }
    },
    "003": {
      "0": {
        "err-analys": [
          {
            "x4_code": "(ERR-S)",
            "free_txt": [
              " Statistical uncertainty"
            ]
          }
        ],
        "status": [
          {
            "x4_code": "(TABLE,,D.K.Nauruzbayev+,J,PPN,53,312,2022)",
            "free_txt": [
              " Fig.4"
            ]
          }
        ]
      }
    }
  }
}