{
  "bib": {
    "title": "RESONANCE CROSS SECTION MEASUREMENTS WITH CONTINUOUS BEAM.",
    "authors": [
      {
        "name": "F.T.Seibel"
      },
      {
        "name": "E.G.Bilpuch"
      },
      {
        "name": "H.W.Newson"
      }
    ],
    "institutes": [
      {
        "x4_code": "(1USADKE)",
        "free_txt": []
      }
    ],
    "references": {
      "0": [
        {
          "x4_code": "(P,WASH-1074,36,6704)",
          "free_txt": [],
          "publication_year": "1967"
        }
      ]
    },
    "facility": {
      "0": [
        {
          "x4_code": "(VDG)",
          "free_txt": []
        }
      ]
    },
    "history": [
      {
        "x4_code": "(850808C)",
        "free_txt": []
      }
    ]
  },
  "13012-001": {
    "extra_information": {
      "detector": {
        "0": [
          {
            "x4_code": "(BF3)",
            "free_txt": []
          }
        ]
      },
      "err-analys": {
        "0": [
          {
            "x4_code": null,
            "free_txt": [
              "NO INFORMATION"
            ]
          }
        ]
      },
      "facility": {
        "0": [
          {
            "x4_code": "(VDG)",
            "free_txt": []
          }
        ]
      },
      "inc-source": {
        "0": [
          {
            "x4_code": "(P-LI7)",
            "free_txt": [
              " LI-7(P,N) REACTION"
            ]
          }
        ]
      },
      "method": {
        "0": [
          {
            "x4_code": null,
            "free_txt": [
              "TRANSMISSION"
            ]
          }
        ]
      },
      "status": {
        "0": [
          {
            "x4_code": null,
            "free_txt": [
              "DATA OBTAINED VIA M.DIVADEENAM"
            ]
          }
        ]
      }
    }
  },
  "13012-002": {
    "reaction": {
      "0": {
        "x4_code": "(83-BI-209(N,TOT),,SIG)",
        "0": {
          "code": [
            "83-BI-209",
            [
              "N,TOT"
            ],
            ",,SIG"
          ],
          "type": null,
          "target": "83-BI-209",
          "process": "N,TOT",
          "sf49": ",,SIG",
          "sf4": null,
          "sf5": null,
          "sf6": "SIG",
          "sf7": null,
          "sf8": null,
          "sf9": null
        },
        "type": null,
        "free_text": ""
      }
    },
    "extra_information": {},
    "common": {
      "heads": [
        "EN-RSL"
      ],
      "units": [
        "KEV"
      ],
      "data": [
        [
          1.5
        ]
      ]
    },
    "data": {
      "heads": [
        "EN",
        "DATA"
      ],
      "units": [
        "KEV",
        "B"
      ],
      "data": [
        [
          172.0,
          173.0,
          174.0,
          175.0,
          176.0,
          177.0,
          178.0,
          179.0,
          180.0,
          181.0,
          182.0,
          183.0,
          184.0,
          185.0,
          186.0,
          187.0,
          188.0,
          189.0,
          190.0,
          191.0,
          192.0,
          193.0,
          194.0,
          195.0,
          196.0,
          197.0,
          198.0,
          199.0,
          200.0,
          201.0,
          202.0,
          203.0,
          204.0,
          205.0,
          206.0,
          207.0,
          208.0,
          209.0,
          210.0,
          211.0,
          212.0,
          213.0,
          214.0,
          215.0,
          216.0,
          217.0,
          218.0,
          219.0,
          220.0,
          221.0,
          222.0,
          223.0,
          224.0,
          225.0,
          226.0,
          227.0,
          228.0,
          229.0,
          230.0,
          231.0,
          232.0,
          233.0,
          234.0,
          235.0,
          236.0,
          237.0,
          238.0,
          239.0,
          240.0,
          241.0,
          242.0,
          243.0,
          244.0,
          245.0,
          246.0,
          247.0,
          248.0,
          249.0,
          250.0,
          251.0,
          252.0,
          253.0,
          254.0,
          255.0,
          256.0,
          257.0,
          258.0,
          259.0,
          260.0,
          261.0,
          262.0,
          263.0,
          264.0,
          265.0,
          266.0,
          267.0,
          268.0,
          269.0,
          270.0,
          271.0,
          272.0,
          273.0,
          274.0,
          275.0,
          276.0,
          277.0,
          278.0,
          279.0,
          280.0,
          281.0,
          282.0,
          283.0,
          284.0,
          285.0,
          286.0,
          287.0,
          288.0,
          289.0,
          290.0,
          291.0,
          292.0,
          293.0,
          294.0,
          295.0,
          296.0,
          297.0,
          298.0,
          299.0,
          300.0,
          301.0,
          302.0,
          303.0,
          304.0,
          305.0,
          306.0,
          307.0,
          308.0,
          309.0,
          310.0,
          311.0,
          312.0,
          313.0,
          314.0,
          315.0,
          316.0,
          317.0,
          318.0,
          319.0,
          320.0,
          321.0,
          322.0,
          323.0,
          324.0,
          325.0,
          326.0,
          327.0,
          328.0,
          329.0,
          330.0,
          331.0,
          332.0,
          333.0,
          334.0,
          335.0,
          336.0,
          337.0,
          338.0,
          339.0,
          340.0,
          341.0,
          342.0,
          343.0,
          344.0,
          345.0,
          346.0,
          347.0,
          348.0,
          349.0,
          350.0,
          351.0,
          352.0,
          353.0,
          354.0,
          355.0,
          356.0,
          357.0,
          358.0,
          359.0,
          360.0,
          361.0,
          362.0,
          363.0,
          364.0,
          365.0,
          366.0,
          367.0,
          368.0,
          369.0,
          370.0,
          371.0,
          372.0,
          373.0,
          374.0,
          375.0,
          376.0,
          377.0,
          378.0,
          379.0,
          380.0,
          381.0,
          382.0,
          383.0,
          384.0,
          385.0,
          386.0,
          387.0,
          388.0,
          389.0,
          390.0,
          391.0,
          392.0,
          393.0,
          394.0,
          395.0,
          396.0,
          397.0,
          398.0,
          399.0,
          400.0,
          401.0,
          402.0,
          403.0,
          404.0,
          405.0,
          406.0,
          407.0,
          408.0,
          409.0,
          410.0,
          411.0,
          412.0,
          413.0,
          414.0,
          415.0,
          416.0,
          417.0,
          418.0,
          419.0,
          420.0,
          421.0,
          422.0,
          423.0,
          424.0,
          425.0,
          426.0,
          427.0,
          428.0,
          429.0,
          430.0,
          431.0,
          432.0,
          433.0,
          434.0,
          435.0,
          436.0,
          437.0,
          438.0,
          439.0,
          440.0,
          441.0,
          442.0,
          443.0,
          444.0,
          445.0,
          446.0,
          447.0,
          448.0,
          449.0,
          450.0,
          451.0,
          452.0,
          453.0,
          454.0,
          455.0,
          456.0,
          457.0,
          458.0,
          459.0,
          460.0,
          461.0,
          462.0,
          463.0,
          464.0,
          465.0,
          466.0,
          467.0,
          468.0,
          469.0,
          470.0,
          471.0,
          472.0,
          473.0,
          474.0,
          475.0,
          476.0,
          477.0,
          478.0,
          479.0,
          480.0,
          481.0,
          482.0,
          483.0,
          484.0,
          485.0,
          486.0,
          487.0,
          488.0,
          489.0,
          490.0,
          491.0,
          492.0,
          493.0,
          494.0,
          495.0,
          496.0,
          497.0,
          498.0,
          499.0,
          500.0,
          501.0,
          502.0,
          503.0,
          504.0,
          505.0,
          506.0,
          507.0,
          508.0,
          509.0,
          510.0,
          511.0,
          512.0,
          513.0,
          514.0,
          515.0,
          516.0,
          517.0,
          518.0,
          519.0,
          520.0,
          521.0,
          522.0,
          523.0,
          524.0,
          525.0,
          526.0,
          527.0,
          528.0,
          529.0,
          530.0,
          531.0,
          532.0,
          533.0,
          534.0,
          535.0,
          536.0,
          537.0,
          538.0,
          539.0,
          540.0,
          541.0,
          542.0,
          543.0,
          544.0,
          545.0,
          546.0,
          547.0,
          548.0,
          549.0,
          550.0,
          551.0,
          552.0,
          553.0,
          554.0,
          555.0,
          556.0,
          557.0,
          558.0,
          559.0,
          560.0,
          561.0,
          562.0,
          563.0,
          564.0,
          565.0,
          566.0,
          567.0,
          568.0,
          569.0,
          570.0,
          571.0,
          572.0,
          573.0,
          574.0,
          575.0,
          576.0,
          577.0,
          578.0,
          579.0,
          580.0,
          581.0,
          582.0,
          583.0,
          584.0,
          585.0,
          586.0,
          587.0,
          588.0,
          589.0,
          590.0,
          591.0,
          592.0,
          593.0,
          594.0,
          595.0,
          596.0,
          597.0,
          598.0,
          599.0,
          600.0
        ],
        [
          6.44,
          5.99,
          6.37,
          6.03,
          4.91,
          5.33,
          8.47,
          8.11,
          8.0,
          7.34,
          6.3,
          6.73,
          6.54,
          9.26,
          9.7,
          9.47,
          9.59,
          8.02,
          7.57,
          7.73,
          8.26,
          9.23,
          8.72,
          8.49,
          8.58,
          8.38,
          7.85,
          8.48,
          7.59,
          7.45,
          7.45,
          7.28,
          7.56,
          7.25,
          7.11,
          6.79,
          7.22,
          5.95,
          5.87,
          5.98,
          6.43,
          7.2,
          6.98,
          5.98,
          5.43,
          7.06,
          8.66,
          7.9,
          8.5,
          8.12,
          7.11,
          7.56,
          8.18,
          7.64,
          8.23,
          8.17,
          7.58,
          7.01,
          6.11,
          6.35,
          6.22,
          7.49,
          8.26,
          8.71,
          7.76,
          7.53,
          7.35,
          7.72,
          8.26,
          8.4,
          7.45,
          6.6,
          6.48,
          6.36,
          8.59,
          8.55,
          8.82,
          8.41,
          7.66,
          7.45,
          7.82,
          8.22,
          7.97,
          7.84,
          7.59,
          7.61,
          7.23,
          5.75,
          5.32,
          5.78,
          5.88,
          7.01,
          8.27,
          8.48,
          8.62,
          8.14,
          7.99,
          8.09,
          8.11,
          7.7,
          8.24,
          8.1,
          7.67,
          7.48,
          5.84,
          5.45,
          4.9,
          6.14,
          7.29,
          7.63,
          7.91,
          7.7,
          7.87,
          7.63,
          8.03,
          6.82,
          5.63,
          6.49,
          7.08,
          6.96,
          6.9,
          6.77,
          6.47,
          5.83,
          5.16,
          4.61,
          4.96,
          6.37,
          7.36,
          8.26,
          8.46,
          6.92,
          7.0,
          5.93,
          6.74,
          8.11,
          8.48,
          8.15,
          6.16,
          6.24,
          5.77,
          7.03,
          8.3,
          7.31,
          6.87,
          6.61,
          7.04,
          7.46,
          7.46,
          7.54,
          7.37,
          6.56,
          7.59,
          8.13,
          8.59,
          8.37,
          9.04,
          8.34,
          8.11,
          7.8,
          8.04,
          8.11,
          8.39,
          8.3,
          7.58,
          7.62,
          7.8,
          6.74,
          7.04,
          6.32,
          5.92,
          6.2,
          6.87,
          7.47,
          7.72,
          8.4,
          7.97,
          8.28,
          7.8,
          7.19,
          7.35,
          7.12,
          7.4,
          7.71,
          7.4,
          7.33,
          6.97,
          7.3,
          7.47,
          7.77,
          8.16,
          8.58,
          8.61,
          8.37,
          8.18,
          7.73,
          7.29,
          6.97,
          7.03,
          8.18,
          7.73,
          7.14,
          7.51,
          6.47,
          5.96,
          5.94,
          5.74,
          6.19,
          6.79,
          7.33,
          7.47,
          6.75,
          6.38,
          5.82,
          4.99,
          4.65,
          5.65,
          6.68,
          6.31,
          6.89,
          8.36,
          6.32,
          6.33,
          6.67,
          6.6,
          7.21,
          7.08,
          8.2,
          7.65,
          7.22,
          7.4,
          6.87,
          6.95,
          7.0,
          7.57,
          7.77,
          8.18,
          7.72,
          7.57,
          7.6,
          8.43,
          7.64,
          7.45,
          7.31,
          7.09,
          6.81,
          6.7,
          6.34,
          5.91,
          5.73,
          6.37,
          7.42,
          7.52,
          7.85,
          7.37,
          6.72,
          7.03,
          7.59,
          7.74,
          7.35,
          7.42,
          7.2,
          7.52,
          6.51,
          6.82,
          7.02,
          6.31,
          6.74,
          6.78,
          6.81,
          6.95,
          6.76,
          7.05,
          6.61,
          6.48,
          6.47,
          6.86,
          6.65,
          7.01,
          6.84,
          6.84,
          6.7,
          6.43,
          6.36,
          6.7,
          6.27,
          6.02,
          5.73,
          6.33,
          5.79,
          6.23,
          5.32,
          6.31,
          6.24,
          6.93,
          6.78,
          6.72,
          6.55,
          6.43,
          6.73,
          6.88,
          7.7,
          7.39,
          6.98,
          6.69,
          5.91,
          5.69,
          5.0,
          4.45,
          5.27,
          6.0,
          6.05,
          6.08,
          6.21,
          6.21,
          6.77,
          6.97,
          6.7,
          6.83,
          6.81,
          7.14,
          7.07,
          7.25,
          6.6,
          6.78,
          7.17,
          6.85,
          6.73,
          7.05,
          6.91,
          6.76,
          5.9,
          6.61,
          6.35,
          5.59,
          6.52,
          6.76,
          7.14,
          7.13,
          6.49,
          5.9,
          6.13,
          5.53,
          4.96,
          4.26,
          4.58,
          4.09,
          5.92,
          5.36,
          6.22,
          5.76,
          6.21,
          5.55,
          5.49,
          5.54,
          6.32,
          7.23,
          6.05,
          6.88,
          6.72,
          6.62,
          6.31,
          6.11,
          5.7,
          5.99,
          6.24,
          5.99,
          6.27,
          6.43,
          6.7,
          6.53,
          5.39,
          4.61,
          4.61,
          5.54,
          5.65,
          5.73,
          5.47,
          5.76,
          5.7,
          5.23,
          5.45,
          5.59,
          5.93,
          6.71,
          6.77,
          6.51,
          7.38,
          6.65,
          6.32,
          6.24,
          6.02,
          5.49,
          5.52,
          5.62,
          5.71,
          5.78,
          5.81,
          6.36,
          6.12,
          5.79,
          6.28,
          5.55,
          5.53,
          5.91,
          6.23,
          6.45,
          6.19,
          6.43,
          6.44,
          6.29,
          6.03,
          5.89,
          6.22,
          5.85,
          5.78,
          5.76,
          6.11,
          5.59,
          6.48,
          6.37,
          6.17,
          5.91,
          6.83,
          6.15,
          6.12,
          6.1,
          5.84,
          6.27
        ]
      ]
    }
  }
}