{
  "entry": "30852",
  "last_updated": "2024-03-13",
  "number_of_revisions": "1",
  "histories": [
    {
      "x4_code": "(20230309R)",
      "free_txt": [
        " Total CS data received from S.G.Shin"
      ]
    },
    {
      "x4_code": "(20230313C)",
      "free_txt": [
        " S.C.Yang"
      ]
    }
  ],
  "bib_record": {
    "title": "Measurements of Neutron Total Cross-Section of Natural Silver in the Energy Region from 0.01 to 10 eV",
    "authors": [
      {
        "name": "S.G.Shin"
      },
      {
        "name": "M.H.Cho"
      },
      {
        "name": "G.N.Kim"
      },
      {
        "name": "M.W.Lee"
      }
    ],
    "institutes": [
      {
        "x4_code": "(3KORPUE)",
        "free_txt": ""
      },
      {
        "x4_code": "(3KORKNU)",
        "free_txt": ""
      },
      {
        "x4_code": "(3KORDRM)",
        "free_txt": ""
      }
    ],
    "references": [
      {
        "x4_code": "(J,KPS,72,17,2018)",
        "free_txt": [],
        "publication_year": "2018",
        "doi": null,
        "pointer": "0"
      }
    ],
    "facilities": [
      {
        "x4_code": "(LINAC,3KORPUE)",
        "free_txt": [
          " Pohang Neutron Facility (PNF)"
        ],
        "pointer": "0",
        "facility_type": "(LINAC)",
        "institute": "(3KORPUE)"
      }
    ]
  },
  "reactions": {
    "002": {
      "0": {
        "x4_code": "(47-AG-0(N,TOT),,SIG)",
        "children": [
          {
            "code": [
              "47-AG-0",
              [
                "N,TOT"
              ],
              ",,SIG"
            ],
            "type": null,
            "target": "47-AG-0",
            "process": "N,TOT",
            "sf49": ",,SIG",
            "sf4": null,
            "sf5": null,
            "sf6": "SIG",
            "sf7": null,
            "sf8": null,
            "sf9": null
          }
        ],
        "type": null,
        "free_text": "",
        "pointer": "0"
      }
    }
  },
  "data_tables": {
    "001": {
      "common": null
    },
    "002": {
      "common": null,
      "data": {
        "heads": [
          "EN",
          "DATA",
          "ERR-S"
        ],
        "units": [
          "EV",
          "B",
          "B"
        ],
        "data": [
          [
            0.01057,
            0.01062,
            0.01068,
            0.01073,
            0.01078,
            0.01084,
            0.01089,
            0.01095,
            0.011,
            0.01106,
            0.01112,
            0.01117,
            0.01123,
            0.01129,
            0.01135,
            0.01141,
            0.01147,
            0.01153,
            0.01159,
            0.01165,
            0.01171,
            0.01177,
            0.01183,
            0.01189,
            0.01196,
            0.01202,
            0.01209,
            0.01215,
            0.01222,
            0.01228,
            0.01235,
            0.01241,
            0.01248,
            0.01255,
            0.01262,
            0.01269,
            0.01276,
            0.01283,
            0.0129,
            0.01297,
            0.01304,
            0.01311,
            0.01319,
            0.01326,
            0.01333,
            0.01341,
            0.01348,
            0.01356,
            0.01364,
            0.01371,
            0.01379,
            0.01387,
            0.01395,
            0.01403,
            0.01411,
            0.01419,
            0.01428,
            0.01436,
            0.01444,
            0.01453,
            0.01461,
            0.0147,
            0.01479,
            0.01487,
            0.01496,
            0.01505,
            0.01514,
            0.01523,
            0.01532,
            0.01542,
            0.01551,
            0.0156,
            0.0157,
            0.01579,
            0.01589,
            0.01599,
            0.01609,
            0.01619,
            0.01629,
            0.01639,
            0.01649,
            0.01659,
            0.0167,
            0.0168,
            0.01691,
            0.01701,
            0.01712,
            0.01723,
            0.01734,
            0.01745,
            0.01757,
            0.01768,
            0.01779,
            0.01791,
            0.01803,
            0.01814,
            0.01826,
            0.01838,
            0.0185,
            0.01863,
            0.01875,
            0.01888,
            0.019,
            0.01913,
            0.01926,
            0.01939,
            0.01952,
            0.01965,
            0.01979,
            0.01992,
            0.02006,
            0.0202,
            0.02034,
            0.02048,
            0.02062,
            0.02077,
            0.02091,
            0.02106,
            0.02121,
            0.02136,
            0.02151,
            0.02167,
            0.02182,
            0.02198,
            0.02214,
            0.0223,
            0.02246,
            0.02262,
            0.02279,
            0.02296,
            0.02313,
            0.0233,
            0.02347,
            0.02365,
            0.02382,
            0.024,
            0.02418,
            0.02437,
            0.02455,
            0.02474,
            0.02493,
            0.02512,
            0.02532,
            0.02551,
            0.02571,
            0.02591,
            0.02612,
            0.02632,
            0.02653,
            0.02674,
            0.02695,
            0.02717,
            0.02739,
            0.02761,
            0.02783,
            0.02806,
            0.02829,
            0.02852,
            0.02876,
            0.02899,
            0.02923,
            0.02948,
            0.02973,
            0.02998,
            0.03023,
            0.03049,
            0.03074,
            0.03101,
            0.03127,
            0.03154,
            0.03182,
            0.03209,
            0.03237,
            0.03266,
            0.03295,
            0.03324,
            0.03353,
            0.03383,
            0.03414,
            0.03445,
            0.03476,
            0.03507,
            0.03539,
            0.03572,
            0.03605,
            0.03638,
            0.03672,
            0.03707,
            0.03741,
            0.03777,
            0.03813,
            0.03849,
            0.03886,
            0.03923,
            0.03961,
            0.04,
            0.04039,
            0.04078,
            0.04119,
            0.04159,
            0.04201,
            0.04243,
            0.04285,
            0.04329,
            0.04373,
            0.04417,
            0.04463,
            0.04509,
            0.04556,
            0.04603,
            0.04651,
            0.047,
            0.0475,
            0.04801,
            0.04852,
            0.04904,
            0.04958,
            0.05011,
            0.05066,
            0.05122,
            0.05179,
            0.05236,
            0.05295,
            0.05354,
            0.05415,
            0.05477,
            0.05539,
            0.05603,
            0.05668,
            0.05734,
            0.05801,
            0.05869,
            0.05939,
            0.0601,
            0.06082,
            0.06155,
            0.0623,
            0.06306,
            0.06383,
            0.06462,
            0.06543,
            0.06624,
            0.06708,
            0.06793,
            0.0688,
            0.06968,
            0.07058,
            0.0715,
            0.07243,
            0.07339,
            0.07436,
            0.07535,
            0.07637,
            0.0774,
            0.07845,
            0.07953,
            0.08063,
            0.08175,
            0.08289,
            0.08406,
            0.08526,
            0.08648,
            0.08772,
            0.089,
            0.0903,
            0.09163,
            0.09299,
            0.09438,
            0.0958,
            0.09725,
            0.09874,
            0.10065,
            0.10142,
            0.10221,
            0.10301,
            0.10381,
            0.10463,
            0.10545,
            0.10629,
            0.10713,
            0.10799,
            0.10885,
            0.10973,
            0.11062,
            0.11151,
            0.11242,
            0.11334,
            0.11427,
            0.11521,
            0.11617,
            0.11713,
            0.11811,
            0.1191,
            0.1201,
            0.12112,
            0.12215,
            0.12319,
            0.12424,
            0.12531,
            0.12639,
            0.12749,
            0.1286,
            0.12973,
            0.13087,
            0.13202,
            0.13319,
            0.13438,
            0.13558,
            0.1368,
            0.13803,
            0.13928,
            0.14055,
            0.14184,
            0.14314,
            0.14446,
            0.1458,
            0.14716,
            0.14854,
            0.14994,
            0.15135,
            0.15279,
            0.15425,
            0.15573,
            0.15723,
            0.15875,
            0.16029,
            0.16186,
            0.16345,
            0.16506,
            0.1667,
            0.16836,
            0.17005,
            0.17176,
            0.1735,
            0.17527,
            0.17706,
            0.17888,
            0.18073,
            0.1826,
            0.18451,
            0.18645,
            0.18841,
            0.19041,
            0.19244,
            0.1945,
            0.1966,
            0.19873,
            0.20089,
            0.20309,
            0.20533,
            0.20761,
            0.20992,
            0.21227,
            0.21466,
            0.21709,
            0.21956,
            0.22208,
            0.22464,
            0.22724,
            0.22989,
            0.23258,
            0.23532,
            0.23811,
            0.24096,
            0.24385,
            0.24679,
            0.24979,
            0.25285,
            0.25596,
            0.25912,
            0.26235,
            0.26564,
            0.26899,
            0.2724,
            0.27588,
            0.27943,
            0.28304,
            0.28673,
            0.29048,
            0.29432,
            0.29823,
            0.30221,
            0.30628,
            0.31043,
            0.31466,
            0.31899,
            0.3234,
            0.3279,
            0.3325,
            0.3372,
            0.34199,
            0.3469,
            0.3519,
            0.35702,
            0.36224,
            0.36759,
            0.37305,
            0.37863,
            0.38434,
            0.39018,
            0.39616,
            0.40227,
            0.40853,
            0.41493,
            0.42149,
            0.4282,
            0.43507,
            0.44211,
            0.44932,
            0.45671,
            0.46429,
            0.47205,
            0.48001,
            0.48817,
            0.49655,
            0.50514,
            0.51395,
            0.523,
            0.53229,
            0.54183,
            0.55163,
            0.56169,
            0.57204,
            0.58267,
            0.5936,
            0.60484,
            0.61641,
            0.62831,
            0.64055,
            0.65316,
            0.66615,
            0.67953,
            0.69331,
            0.70752,
            0.72216,
            0.73727,
            0.75286,
            0.76894,
            0.78555,
            0.8027,
            0.82042,
            0.83873,
            0.85767,
            0.87725,
            0.89751,
            0.91847,
            0.94019,
            0.96268,
            0.98599,
            1.01015,
            1.03522,
            1.06123,
            1.08823,
            1.11627,
            1.14542,
            1.17572,
            1.20724,
            1.24004,
            1.2742,
            1.30979,
            1.34689,
            1.3856,
            1.42599,
            1.46818,
            1.51226,
            1.55837,
            1.60661,
            1.65713,
            1.71007,
            1.76559,
            1.82385,
            1.88505,
            1.94938,
            2.01706,
            2.08833,
            2.16344,
            2.24268,
            2.32636,
            2.41481,
            2.50839,
            2.60753,
            2.71266,
            2.82428,
            2.94293,
            3.06922,
            3.20382,
            3.34747,
            3.50101,
            3.66535,
            3.84154,
            4.03075,
            4.23429,
            4.45365,
            4.6905,
            4.94676,
            5.22462,
            5.52655,
            5.77052,
            5.94225,
            6.12176,
            6.30953,
            6.50608,
            6.71195,
            6.92776,
            7.15414,
            7.3918,
            7.6415,
            7.90407,
            8.18041,
            8.47151,
            8.77842,
            9.10231,
            9.44447,
            9.80629
          ],
          [
            92.2055,
            102.12,
            108.174,
            94.355,
            104.656,
            98.0794,
            105.108,
            95.8978,
            94.8898,
            105.268,
            85.4569,
            93.5929,
            98.7819,
            94.5103,
            103.482,
            95.6318,
            87.2561,
            96.7798,
            89.204,
            91.5343,
            108.731,
            90.2769,
            91.1991,
            96.0125,
            89.3751,
            103.346,
            92.3327,
            94.5926,
            97.4797,
            99.7131,
            86.6702,
            91.2625,
            92.0058,
            88.8621,
            90.146,
            88.0536,
            94.524,
            90.7965,
            98.5183,
            98.4952,
            91.6566,
            88.5654,
            94.5286,
            92.0421,
            90.3807,
            91.9605,
            89.042,
            92.5053,
            91.8334,
            96.4029,
            92.6962,
            88.3903,
            91.5025,
            87.6008,
            85.2299,
            87.171,
            86.0184,
            84.8163,
            85.1409,
            86.2504,
            87.807,
            92.428,
            91.086,
            89.9971,
            87.5874,
            85.0831,
            82.6231,
            78.0772,
            90.5885,
            89.9971,
            79.3919,
            84.8919,
            78.365,
            86.0318,
            80.5271,
            84.2656,
            80.7511,
            81.1027,
            80.6325,
            80.5578,
            84.7274,
            83.0651,
            81.7938,
            83.8044,
            80.4349,
            89.087,
            76.8283,
            82.27,
            80.8609,
            79.4882,
            81.9039,
            85.6306,
            77.881,
            81.5603,
            85.3145,
            84.6119,
            80.2375,
            79.8735,
            78.889,
            74.0118,
            79.9787,
            71.4274,
            75.7007,
            76.9846,
            79.5013,
            78.2603,
            75.3112,
            73.8308,
            74.7235,
            76.2944,
            77.5762,
            74.1282,
            75.5838,
            77.5805,
            75.108,
            77.5109,
            76.7197,
            74.9524,
            73.9472,
            73.1984,
            68.0563,
            69.5974,
            75.216,
            70.3982,
            69.4102,
            73.4263,
            69.3337,
            73.9386,
            67.2482,
            71.9068,
            72.5841,
            73.237,
            72.962,
            70.4323,
            68.7178,
            68.6584,
            68.1665,
            69.5506,
            72.1896,
            69.7293,
            71.2478,
            69.3124,
            69.032,
            65.5619,
            63.1144,
            68.2004,
            68.8494,
            66.2565,
            66.1638,
            67.4342,
            63.5114,
            64.8434,
            65.7554,
            67.7811,
            65.7175,
            69.0914,
            64.7721,
            66.2776,
            66.2312,
            63.3567,
            65.3937,
            64.7637,
            62.0136,
            63.7414,
            61.5352,
            61.8471,
            64.2019,
            65.6039,
            62.3343,
            64.248,
            62.622,
            59.901,
            62.4635,
            61.4978,
            63.2104,
            60.6715,
            59.7727,
            57.6655,
            59.7397,
            59.4213,
            60.2032,
            58.1015,
            58.7979,
            56.9221,
            59.2272,
            58.8433,
            53.6228,
            56.6637,
            56.1516,
            57.9163,
            56.6514,
            58.2951,
            58.1056,
            53.0502,
            56.0902,
            54.3999,
            55.8202,
            57.1109,
            54.7177,
            54.3225,
            53.9114,
            54.1963,
            54.5262,
            55.5299,
            55.5013,
            54.1312,
            54.8849,
            54.351,
            52.6812,
            53.375,
            51.314,
            50.6606,
            51.9686,
            51.1404,
            53.2126,
            51.0033,
            51.6775,
            50.435,
            51.205,
            50.9226,
            49.8596,
            50.717,
            48.4993,
            48.8279,
            47.3399,
            49.2129,
            48.8519,
            47.8472,
            47.9671,
            49.0845,
            47.3639,
            48.0911,
            47.1923,
            46.9849,
            47.2042,
            45.9099,
            46.2599,
            44.3077,
            43.8095,
            44.4621,
            46.8493,
            46.6222,
            46.6381,
            45.6199,
            43.3831,
            44.4818,
            42.6656,
            44.8542,
            41.6274,
            45.0524,
            43.0083,
            42.6695,
            42.9611,
            43.4146,
            40.8273,
            42.9177,
            41.596,
            41.981,
            38.5859,
            40.1581,
            40.205,
            39.2366,
            40.0721,
            40.4945,
            39.9666,
            39.947,
            39.7908,
            40.8391,
            39.8767,
            39.2639,
            37.5599,
            37.8782,
            38.3603,
            37.7773,
            37.719,
            35.3856,
            37.6142,
            36.6916,
            39.5604,
            36.0805,
            36.4478,
            36.1694,
            37.2999,
            33.152,
            35.4203,
            39.1547,
            36.2815,
            34.3266,
            36.1578,
            32.2144,
            35.7136,
            33.1367,
            36.2042,
            37.0015,
            32.6695,
            35.9028,
            37.017,
            33.0064,
            33.4242,
            35.3509,
            35.9414,
            38.3603,
            33.5469,
            34.2458,
            34.9809,
            31.9049,
            33.8616,
            36.8388,
            32.9068,
            32.2908,
            32.18,
            35.3355,
            32.9183,
            31.1269,
            29.4621,
            36.0457,
            32.8264,
            31.1535,
            35.401,
            30.1795,
            35.9878,
            30.8641,
            34.2382,
            30.3125,
            33.8271,
            32.9298,
            28.6213,
            33.083,
            31.4737,
            32.4705,
            29.8149,
            34.8884,
            28.8559,
            37.0712,
            31.3632,
            33.1405,
            30.0921,
            31.0164,
            30.3239,
            27.4017,
            27.8845,
            30.7803,
            32.7231,
            29.9288,
            27.2849,
            34.8846,
            29.4355,
            28.4247,
            27.3489,
            31.4203,
            31.6645,
            28.2471,
            28.5608,
            25.7921,
            29.4393,
            28.7121,
            25.1811,
            26.9233,
            28.4171,
            24.4328,
            24.3057,
            28.5646,
            29.5759,
            28.2168,
            26.2051,
            25.7508,
            25.7283,
            32.7498,
            28.3907,
            25.0126,
            28.3378,
            28.9771,
            24.904,
            28.3415,
            27.8128,
            20.8558,
            25.5521,
            26.5245,
            24.8703,
            26.9384,
            23.9398,
            29.3749,
            27.0701,
            23.3655,
            27.2924,
            26.1825,
            27.5148,
            22.049,
            23.0117,
            27.9373,
            26.0736,
            27.2283,
            24.7656,
            23.9809,
            17.6852,
            27.7562,
            20.7633,
            27.7713,
            18.5551,
            22.4204,
            18.6139,
            22.5579,
            23.6227,
            21.5038,
            23.8502,
            26.2652,
            21.263,
            22.4613,
            22.491,
            19.4382,
            21.4593,
            21.1519,
            21.0297,
            18.9228,
            22.3944,
            20.8299,
            20.5009,
            19.4271,
            25.3272,
            21.9228,
            23.1495,
            20.246,
            20.2903,
            23.2426,
            25.5858,
            18.5514,
            21.3963,
            22.5728,
            23.6749,
            22.9857,
            23.4848,
            22.0935,
            19.7589,
            15.6785,
            15.4235,
            16.3352,
            16.39,
            17.9309,
            20.3678,
            22.9112,
            19.2503,
            18.489,
            18.1951,
            20.7707,
            16.1271,
            17.7989,
            20.7375,
            18.4228,
            19.4455,
            17.5789,
            14.9031,
            21.4,
            16.6603,
            20.3161,
            20.1241,
            22.5096,
            17.8649,
            16.9199,
            16.4995,
            19.545,
            19.4235,
            17.6816,
            18.2061,
            18.489,
            19.5045,
            21.0445,
            20.841,
            16.7554,
            18.342,
            19.1473,
            24.8516,
            21.0001,
            18.4853,
            19.7552,
            19.4714,
            20.7153,
            21.1371,
            23.7346,
            20.841,
            24.0256,
            25.2597,
            27.5789,
            28.7348,
            28.3453,
            35.868,
            34.1152,
            37.4939,
            42.5829,
            56.918,
            65.9532,
            84.3633,
            123.352,
            197.343,
            397.255,
            1125.5,
            1712.34,
            697.703,
            291.604,
            170.878,
            117.465,
            81.239,
            59.8183,
            49.4658,
            35.0001,
            36.1501,
            28.4738,
            24.818,
            24.1563,
            14.2999,
            20.0208,
            14.605,
            11.541,
            16.7517,
            10.5232
          ],
          [
            7.93573,
            8.08536,
            8.29838,
            7.77928,
            8.04563,
            7.76592,
            7.943,
            7.64862,
            7.49843,
            7.77698,
            7.16011,
            7.35206,
            7.33746,
            7.19778,
            7.39958,
            7.1568,
            6.84359,
            7.08382,
            6.84144,
            6.84657,
            7.18343,
            6.67743,
            6.64534,
            6.71024,
            6.48455,
            6.79202,
            6.47625,
            6.47268,
            6.51731,
            6.51284,
            6.15737,
            6.19831,
            6.16618,
            6.01637,
            6.00698,
            5.95307,
            6.02352,
            5.9323,
            6.06986,
            6.00012,
            5.79285,
            5.7282,
            5.78138,
            5.71304,
            5.63167,
            5.58014,
            5.5291,
            5.5707,
            5.49194,
            5.54146,
            5.40554,
            5.28975,
            5.31456,
            5.18817,
            5.06399,
            5.05201,
            5.00857,
            4.96465,
            4.92924,
            4.90479,
            4.87744,
            4.91984,
            4.86925,
            4.80895,
            4.75788,
            4.65264,
            4.58899,
            4.4554,
            4.63636,
            4.59692,
            4.38034,
            4.45893,
            4.31073,
            4.39772,
            4.29805,
            4.32223,
            4.22613,
            4.19962,
            4.15443,
            4.1272,
            4.15022,
            4.1172,
            4.04933,
            4.04618,
            3.96335,
            4.06749,
            3.85303,
            3.89162,
            3.85394,
            3.80814,
            3.80379,
            3.82241,
            3.67298,
            3.70757,
            3.72548,
            3.69576,
            3.61017,
            3.56697,
            3.51757,
            3.43421,
            3.49353,
            3.3404,
            3.3643,
            3.35933,
            3.3618,
            3.32804,
            3.25674,
            3.2214,
            3.20375,
            3.20522,
            3.18221,
            3.11639,
            3.09914,
            3.09518,
            3.056,
            3.05104,
            3.0224,
            2.96823,
            2.93383,
            2.90174,
            2.83381,
            2.8251,
            2.86238,
            2.78469,
            2.75555,
            2.77889,
            2.70818,
            2.73559,
            2.64975,
            2.66829,
            2.65631,
            2.6355,
            2.61624,
            2.57172,
            2.53363,
            2.52047,
            2.49997,
            2.48439,
            2.48614,
            2.44311,
            2.44095,
            2.40192,
            2.383,
            2.33836,
            2.29693,
            2.31799,
            2.30109,
            2.26717,
            2.24129,
            2.22833,
            2.18248,
            2.16986,
            2.16713,
            2.16707,
            2.13323,
            2.13275,
            2.09388,
            2.08188,
            2.06896,
            2.03524,
            2.02616,
            2.00571,
            1.97329,
            1.97055,
            1.93733,
            1.93074,
            1.92708,
            1.92223,
            1.88761,
            1.88124,
            1.8558,
            1.82481,
            1.82995,
            1.80826,
            1.80046,
            1.7708,
            1.74969,
            1.7268,
            1.72057,
            1.71073,
            1.70215,
            1.67545,
            1.66643,
            1.64517,
            1.65196,
            1.63364,
            1.59309,
            1.59476,
            1.58014,
            1.5717,
            1.55371,
            1.55282,
            1.53962,
            1.50527,
            1.50618,
            1.49075,
            1.48457,
            1.47776,
            1.4595,
            1.44562,
            1.43578,
            1.42475,
            1.42202,
            1.41795,
            1.40558,
            1.39192,
            1.38678,
            1.37244,
            1.35777,
            1.35235,
            1.33227,
            1.31768,
            1.31859,
            1.30739,
            1.30707,
            1.29074,
            1.28516,
            1.27253,
            1.27131,
            1.26222,
            1.25033,
            1.24938,
            1.23344,
            1.22659,
            1.21737,
            1.21992,
            1.21465,
            1.20316,
            1.19957,
            1.19941,
            1.18951,
            1.188,
            1.18095,
            1.17227,
            1.17301,
            1.16469,
            1.16188,
            1.15143,
            1.14978,
            1.14798,
            1.15587,
            1.15114,
            1.15119,
            1.14386,
            1.13654,
            1.14013,
            1.1342,
            1.14135,
            1.13083,
            1.142,
            1.13532,
            1.13815,
            1.1391,
            1.14059,
            1.13215,
            1.1429,
            1.1425,
            1.14377,
            1.13657,
            1.14562,
            1.14968,
            1.15039,
            1.15706,
            1.16238,
            1.16844,
            1.17618,
            1.17956,
            1.19095,
            1.19548,
            1.20118,
            1.1992,
            1.72082,
            1.7232,
            1.72808,
            1.73944,
            1.73169,
            1.75056,
            1.75368,
            1.77989,
            1.76606,
            1.77953,
            1.78197,
            1.7994,
            1.78194,
            1.80515,
            1.83629,
            1.83281,
            1.82641,
            1.84376,
            1.83448,
            1.86457,
            1.86616,
            1.89426,
            1.91023,
            1.89428,
            1.92739,
            1.94131,
            1.93058,
            1.94057,
            1.97061,
            1.98554,
            2.01882,
            1.9988,
            2.01435,
            2.03401,
            2.03141,
            2.05821,
            2.09136,
            2.08321,
            2.091,
            2.1018,
            2.14405,
            2.14072,
            2.14498,
            2.14993,
            2.20639,
            2.20524,
            2.20992,
            2.25245,
            2.23795,
            2.29488,
            2.27661,
            2.32567,
            2.31102,
            2.34981,
            2.35908,
            2.34522,
            2.39843,
            2.40264,
            2.42482,
            2.42539,
            2.48022,
            2.45657,
            2.53843,
            2.50481,
            2.54445,
            2.53368,
            2.54803,
            2.56957,
            2.55565,
            2.5743,
            2.61481,
            2.66005,
            2.6388,
            2.6377,
            2.72282,
            2.68815,
            2.68792,
            2.69848,
            2.74164,
            2.75501,
            2.73945,
            2.75327,
            2.74273,
            2.77538,
            2.77338,
            2.7604,
            2.86834,
            2.88823,
            2.85165,
            2.87303,
            2.9008,
            2.93198,
            2.92435,
            2.91878,
            2.89622,
            2.90729,
            2.97413,
            2.92959,
            2.90507,
            2.94426,
            2.95346,
            2.90416,
            2.92918,
            2.9436,
            2.86692,
            2.90582,
            2.9177,
            2.8964,
            2.9174,
            2.88867,
            2.93408,
            2.91474,
            2.86156,
            2.89776,
            2.8923,
            2.8883,
            2.83592,
            2.8326,
            2.88048,
            2.8576,
            2.86709,
            2.82819,
            2.81436,
            2.75297,
            2.84125,
            2.75891,
            2.82628,
            2.72678,
            2.75348,
            2.70886,
            2.7397,
            2.74435,
            2.70177,
            2.73122,
            2.7427,
            2.70361,
            2.70549,
            2.70944,
            2.67475,
            2.69772,
            2.68423,
            2.67959,
            2.66344,
            2.68268,
            2.67436,
            2.66444,
            2.65624,
            2.70535,
            2.67534,
            2.66988,
            2.65141,
            2.64806,
            2.67059,
            2.68486,
            2.62385,
            2.64907,
            2.66174,
            2.65526,
            2.65001,
            2.64263,
            2.63952,
            2.60346,
            2.5695,
            2.56034,
            2.56705,
            2.5638,
            2.56049,
            2.57477,
            2.59735,
            2.56284,
            2.5499,
            2.54775,
            2.55556,
            2.52172,
            2.53752,
            2.54422,
            2.5237,
            2.53112,
            2.51393,
            2.4947,
            2.53795,
            2.49269,
            2.51898,
            2.5139,
            2.52746,
            2.49399,
            2.47992,
            2.46962,
            2.49499,
            2.49043,
            2.47068,
            2.47808,
            2.48009,
            2.47627,
            2.48354,
            2.48579,
            2.45315,
            2.45701,
            2.47005,
            2.51082,
            2.47582,
            2.45434,
            2.46699,
            2.45393,
            2.4701,
            2.47309,
            2.49533,
            2.47099,
            2.48995,
            2.51002,
            2.53433,
            2.54275,
            2.54369,
            2.60306,
            2.59769,
            2.63852,
            2.69703,
            2.85543,
            2.97676,
            3.24036,
            3.85238,
            5.58027,
            16.3985,
            407.899,
            3417.39,
            56.2612,
            10.7977,
            5.76386,
            4.45168,
            3.77894,
            3.41296,
            3.26486,
            3.0743,
            3.07673,
            2.96432,
            2.91467,
            2.8942,
            2.78081,
            2.83053,
            2.75417,
            2.73366,
            2.76754,
            2.69696
          ]
        ]
      }
    }
  },
  "experimental_conditions": {
    "001": {
      "0": {
        "detector": [
          {
            "x4_code": "(SCIN)",
            "free_txt": [
              " 6Li-ZnS(Ag) scintillator (BC702) with a diameter",
              " 12.5 cm and a thickness of 1.6 cm"
            ]
          }
        ],
        "err-analys": [
          {
            "x4_code": "(ERR-S)",
            "free_txt": [
              " Statistical error"
            ]
          }
        ],
        "facility": [
          {
            "x4_code": "(LINAC,3KORPUE)",
            "free_txt": [
              " Pohang Neutron Facility (PNF)"
            ]
          }
        ],
        "inc-source": [
          {
            "x4_code": "(PHOTO)",
            "free_txt": [
              " Ta(g,n) photonuclear reaction"
            ]
          }
        ],
        "method": [
          {
            "x4_code": "(TOF,TRN)",
            "free_txt": [
              " 11 m flight path. The Co, In, Dy and Cd notch",
              " filters were used for the background measurement and",
              " the energy calibration."
            ]
          }
        ],
        "sample": [
          {
            "x4_code": null,
            "free_txt": [
              "Ag metallic plate",
              " - size: 10 cm x 10 cm",
              " - thickness: 0.5 mm (2.87 atoms/mbarn)"
            ]
          }
        ],
        "status": [
          {
            "x4_code": "(APRVD)",
            "free_txt": [
              " Approved by G.N.Kim (2023-03-14)"
            ]
          }
        ]
      }
    },
    "002": {
      "0": {
        "status": [
          {
            "x4_code": "(TABLE)",
            "free_txt": [
              " Fig.5 of J.Korean Phys.Soc.72,17,2018"
            ]
          }
        ]
      }
    }
  }
}